;PC Software:StarLab Version 3.62 Build 1
! ******* Warning: Do not modify this file. Changes may prevent   ********
! ******* the StarLab Log reader from opening the file correctly. ********
;Logged:24/01/2022 at 15:08:35
;File Version:5
;Time Resolution:1 microseconds
;Log Settings:Stop after:period: 00:05:00
;Graph Mode:Merge
;Graph Type:Line
;Notes:                                                            

;Channel A:Vega Pyroelectric PE50BF-DIF (s/n:571777)  VG2.54 (s/n:547613)

;Channel A:Details
;Name:PE50BF-DIF
;Graph Color:RGB(14,104,168)
;Units:J
;Settings:Measuring:Energy
;Settings:Wavelength:1064
;Settings:Range:40.0mJ
;Settings:Diffuser:N/A
;Settings:Pulse Width:1.0mS
;Settings:Threshold:N/A

;Channel A:Statistics
;Min:4.910mJ             
;Max:5.690mJ             
;Average:5.108mJ             
;Std.Dev.:266.1uJ             
;Overrange:0                   
;Total Pulses:4941                
;--------------------


;First Pulse Arrived : 24/01/2022 at 15:08:35
  Timestamp   	  Channel A  	
         0.000	  4.950e-03 	
         0.021	  4.950e-03 	
         0.040	  4.970e-03 	
         0.061	  4.950e-03 	
         0.080	  4.950e-03 	
         0.100	  4.950e-03 	
         0.121	  4.950e-03 	
         0.141	  4.930e-03 	
         0.161	  4.970e-03 	
         0.180	  4.950e-03 	
         0.200	  4.930e-03 	
         0.221	  4.950e-03 	
         0.241	  4.950e-03 	
         0.261	  4.950e-03 	
         0.280	  4.950e-03 	
         0.300	  4.950e-03 	
         0.321	  4.930e-03 	
         0.341	  4.950e-03 	
         0.361	  4.970e-03 	
         0.380	  4.950e-03 	
         0.399	  4.950e-03 	
         0.419	  4.930e-03 	
         0.441	  4.950e-03 	
         0.461	  4.930e-03 	
         0.480	  4.930e-03 	
         0.500	  4.930e-03 	
         0.519	  4.930e-03 	
         0.541	  4.930e-03 	
         0.561	  4.950e-03 	
         0.580	  4.930e-03 	
         0.600	  4.930e-03 	
         0.619	  4.950e-03 	
         0.640	  4.950e-03 	
         0.661	  4.950e-03 	
         0.680	  4.930e-03 	
         0.701	  4.930e-03 	
         0.719	  4.950e-03 	
         0.739	  4.930e-03 	
         0.760	  4.950e-03 	
         0.779	  4.930e-03 	
         0.800	  4.930e-03 	
         0.820	  4.930e-03 	
         0.841	  4.950e-03 	
         0.861	  4.930e-03 	
         0.880	  4.930e-03 	
         0.900	  4.950e-03 	
         0.921	  4.930e-03 	
         0.941	  4.930e-03 	
         0.961	  4.950e-03 	
         0.980	  4.950e-03 	
         1.000	  4.950e-03 	
         1.021	  4.950e-03 	
         1.041	  4.950e-03 	
         1.059	  4.950e-03 	
         1.080	  4.950e-03 	
         1.100	  4.950e-03 	
         1.121	  4.930e-03 	
         1.141	  4.930e-03 	
         1.161	  4.970e-03 	
         1.180	  4.950e-03 	
         1.199	  4.950e-03 	
         1.221	  4.930e-03 	
         1.241	  4.950e-03 	
         1.261	  4.950e-03 	
         1.280	  4.950e-03 	
         1.299	  4.930e-03 	
         1.319	  4.950e-03 	
         1.340	  4.950e-03 	
         1.361	  4.950e-03 	
         1.380	  4.950e-03 	
         1.401	  4.950e-03 	
         1.419	  4.950e-03 	
         1.441	  4.950e-03 	
         1.461	  4.950e-03 	
         1.479	  4.950e-03 	
         1.501	  4.950e-03 	
         1.520	  4.970e-03 	
         1.541	  4.950e-03 	
         1.561	  4.930e-03 	
         1.580	  4.950e-03 	
         1.600	  4.950e-03 	
         1.620	  4.950e-03 	
         1.640	  4.950e-03 	
         1.660	  4.950e-03 	
         1.680	  4.930e-03 	
         1.701	  4.930e-03 	
         1.721	  4.930e-03 	
         1.740	  4.950e-03 	
         1.761	  4.950e-03 	
         1.780	  4.950e-03 	
         1.799	  4.950e-03 	
         1.821	  4.950e-03 	
         1.841	  4.950e-03 	
         1.861	  4.950e-03 	
         1.880	  4.950e-03 	
         1.901	  4.950e-03 	
         1.920	  4.950e-03 	
         1.941	  4.950e-03 	
         1.961	  4.950e-03 	
         1.980	  4.950e-03 	
         2.000	  4.950e-03 	
         2.021	  4.930e-03 	
         2.041	  4.950e-03 	
         2.060	  4.950e-03 	
         2.080	  4.950e-03 	
         2.101	  4.950e-03 	
         2.121	  4.950e-03 	
         2.141	  4.930e-03 	
         2.161	  4.990e-03 	
         2.180	  4.950e-03 	
         2.199	  4.950e-03 	
         2.221	  4.950e-03 	
         2.241	  4.930e-03 	
         2.261	  4.930e-03 	
         2.280	  4.950e-03 	
         2.300	  4.950e-03 	
         2.320	  4.950e-03 	
         2.340	  4.950e-03 	
         2.360	  4.970e-03 	
         2.380	  4.930e-03 	
         2.399	  4.930e-03 	
         2.421	  4.930e-03 	
         2.440	  4.950e-03 	
         2.459	  4.930e-03 	
         2.480	  4.950e-03 	
         2.499	  4.930e-03 	
         2.521	  4.930e-03 	
         2.541	  4.950e-03 	
         2.561	  4.930e-03 	
         2.580	  4.930e-03 	
         2.599	  4.930e-03 	
         2.621	  4.950e-03 	
         2.641	  4.950e-03 	
         2.661	  4.930e-03 	
         2.680	  4.950e-03 	
         2.700	  4.950e-03 	
         2.721	  4.930e-03 	
         2.740	  4.930e-03 	
         2.761	  4.930e-03 	
         2.780	  4.950e-03 	
         2.800	  4.950e-03 	
         2.821	  4.930e-03 	
         2.841	  4.930e-03 	
         2.861	  4.930e-03 	
         2.880	  4.930e-03 	
         2.901	  4.930e-03 	
         2.921	  4.930e-03 	
         2.941	  4.930e-03 	
         2.959	  4.910e-03 	
         2.980	  4.950e-03 	
         3.001	  4.950e-03 	
         3.021	  4.950e-03 	
         3.041	  4.930e-03 	
         3.059	  4.930e-03 	
         3.080	  4.950e-03 	
         3.100	  4.930e-03 	
         3.123	  4.930e-03 	
         3.141	  4.930e-03 	
         3.159	  4.950e-03 	
         3.180	  4.930e-03 	
         3.201	  4.950e-03 	
         3.221	  4.950e-03 	
         3.241	  4.930e-03 	
         3.261	  4.930e-03 	
         3.279	  4.930e-03 	
         3.299	  4.930e-03 	
         3.321	  4.950e-03 	
         3.341	  4.950e-03 	
         3.361	  4.950e-03 	
         3.380	  4.930e-03 	
         3.399	  4.950e-03 	
         3.421	  4.950e-03 	
         3.441	  4.950e-03 	
         3.461	  4.930e-03 	
         3.480	  4.930e-03 	
         3.501	  4.950e-03 	
         3.521	  4.930e-03 	
         3.541	  4.930e-03 	
         3.561	  4.970e-03 	
         3.580	  4.950e-03 	
         3.600	  4.950e-03 	
         3.622	  4.930e-03 	
         3.640	  4.950e-03 	
         3.661	  4.930e-03 	
         3.680	  4.950e-03 	
         3.701	  4.950e-03 	
         3.721	  4.930e-03 	
         3.740	  4.930e-03 	
         3.761	  4.930e-03 	
         3.780	  4.950e-03 	
         3.800	  4.930e-03 	
         3.819	  4.950e-03 	
         3.841	  4.950e-03 	
         3.861	  4.930e-03 	
         3.880	  4.930e-03 	
         3.901	  4.930e-03 	
         3.920	  4.930e-03 	
         3.941	  4.930e-03 	
         3.959	  4.930e-03 	
         3.980	  4.930e-03 	
         4.001	  4.930e-03 	
         4.021	  4.950e-03 	
         4.041	  4.950e-03 	
         4.059	  4.930e-03 	
         4.080	  5.010e-03 	
         4.100	  4.950e-03 	
         4.123	  4.930e-03 	
         4.141	  4.930e-03 	
         4.161	  4.930e-03 	
         4.180	  4.930e-03 	
         4.200	  4.930e-03 	
         4.221	  4.930e-03 	
         4.241	  4.930e-03 	
         4.261	  4.910e-03 	
         4.279	  4.930e-03 	
         4.300	  4.950e-03 	
         4.321	  4.930e-03 	
         4.341	  4.930e-03 	
         4.361	  4.930e-03 	
         4.380	  4.930e-03 	
         4.401	  4.930e-03 	
         4.421	  4.930e-03 	
         4.441	  4.930e-03 	
         4.461	  4.910e-03 	
         4.480	  4.950e-03 	
         4.499	  4.950e-03 	
         4.519	  4.950e-03 	
         4.541	  4.930e-03 	
         4.561	  4.930e-03 	
         4.580	  4.950e-03 	
         4.600	  4.930e-03 	
         4.623	  4.950e-03 	
         4.640	  4.930e-03 	
         4.661	  4.950e-03 	
         4.680	  4.930e-03 	
         4.701	  4.950e-03 	
         4.719	  4.950e-03 	
         4.741	  4.950e-03 	
         4.761	  4.930e-03 	
         4.780	  4.930e-03 	
         4.799	  4.930e-03 	
         4.820	  4.950e-03 	
         4.840	  4.930e-03 	
         4.861	  4.950e-03 	
         4.880	  4.950e-03 	
         4.901	  4.950e-03 	
         4.920	  4.950e-03 	
         4.941	  4.950e-03 	
         4.961	  4.950e-03 	
         4.980	  4.950e-03 	
         5.000	  4.950e-03 	
         5.021	  4.950e-03 	
         5.041	  4.930e-03 	
         5.059	  4.930e-03 	
         5.080	  4.930e-03 	
         5.100	  4.950e-03 	
         5.123	  4.950e-03 	
         5.141	  4.950e-03 	
         5.161	  4.930e-03 	
         5.180	  4.930e-03 	
         5.201	  4.930e-03 	
         5.220	  4.950e-03 	
         5.240	  4.950e-03 	
         5.261	  4.950e-03 	
         5.280	  4.950e-03 	
         5.300	  4.950e-03 	
         5.321	  4.930e-03 	
         5.340	  4.950e-03 	
         5.361	  4.970e-03 	
         5.380	  4.950e-03 	
         5.400	  4.950e-03 	
         5.420	  4.950e-03 	
         5.441	  4.950e-03 	
         5.461	  4.970e-03 	
         5.480	  4.950e-03 	
         5.500	  4.930e-03 	
         5.519	  4.950e-03 	
         5.541	  4.930e-03 	
         5.561	  4.930e-03 	
         5.580	  4.930e-03 	
         5.599	  4.930e-03 	
         5.623	  4.930e-03 	
         5.641	  4.930e-03 	
         5.661	  4.930e-03 	
         5.680	  4.950e-03 	
         5.699	  4.930e-03 	
         5.720	  4.930e-03 	
         5.741	  4.910e-03 	
         5.761	  4.930e-03 	
         5.780	  4.910e-03 	
         5.799	  4.930e-03 	
         5.819	  4.930e-03 	
         5.841	  4.950e-03 	
         5.860	  4.930e-03 	
         5.880	  4.930e-03 	
         5.901	  4.930e-03 	
         5.919	  4.930e-03 	
         5.940	  4.910e-03 	
         5.960	  4.930e-03 	
         5.980	  4.930e-03 	
         6.001	  4.930e-03 	
         6.021	  4.930e-03 	
         6.041	  4.910e-03 	
         6.059	  4.910e-03 	
         6.080	  4.930e-03 	
         6.100	  4.930e-03 	
         6.123	  4.930e-03 	
         6.141	  4.950e-03 	
         6.159	  4.930e-03 	
         6.180	  4.910e-03 	
         6.201	  4.930e-03 	
         6.221	  4.930e-03 	
         6.241	  4.930e-03 	
         6.259	  4.930e-03 	
         6.280	  4.930e-03 	
         6.301	  4.930e-03 	
         6.321	  4.930e-03 	
         6.341	  4.930e-03 	
         6.361	  4.950e-03 	
         6.380	  4.930e-03 	
         6.401	  4.930e-03 	
         6.421	  4.930e-03 	
         6.441	  4.930e-03 	
         6.460	  4.930e-03 	
         6.480	  4.950e-03 	
         6.499	  4.930e-03 	
         6.520	  4.930e-03 	
         6.541	  4.910e-03 	
         6.560	  4.930e-03 	
         6.580	  4.930e-03 	
         6.600	  4.930e-03 	
         6.623	  4.930e-03 	
         6.641	  4.930e-03 	
         6.661	  4.930e-03 	
         6.680	  4.910e-03 	
         6.701	  4.950e-03 	
         6.719	  4.930e-03 	
         6.740	  4.930e-03 	
         6.761	  4.930e-03 	
         6.780	  4.930e-03 	
         6.799	  4.950e-03 	
         6.820	  4.930e-03 	
         6.840	  4.930e-03 	
         6.861	  4.950e-03 	
         6.880	  4.930e-03 	
         6.901	  4.950e-03 	
         6.921	  4.930e-03 	
         6.940	  4.930e-03 	
         6.960	  4.930e-03 	
         6.980	  4.970e-03 	
         7.001	  4.950e-03 	
         7.021	  4.950e-03 	
         7.041	  4.950e-03 	
         7.059	  4.930e-03 	
         7.080	  4.930e-03 	
         7.100	  4.930e-03 	
         7.122	  4.930e-03 	
         7.141	  4.970e-03 	
         7.161	  4.950e-03 	
         7.180	  4.930e-03 	
         7.200	  4.950e-03 	
         7.220	  4.950e-03 	
         7.241	  4.950e-03 	
         7.261	  4.950e-03 	
         7.280	  4.930e-03 	
         7.301	  4.930e-03 	
         7.321	  4.950e-03 	
         7.341	  4.950e-03 	
         7.361	  4.970e-03 	
         7.380	  4.950e-03 	
         7.400	  4.950e-03 	
         7.420	  4.930e-03 	
         7.440	  4.930e-03 	
         7.460	  4.930e-03 	
         7.480	  4.930e-03 	
         7.501	  4.930e-03 	
         7.521	  4.950e-03 	
         7.541	  4.930e-03 	
         7.561	  4.930e-03 	
         7.580	  4.930e-03 	
         7.601	  4.950e-03 	
         7.623	  4.950e-03 	
         7.641	  4.950e-03 	
         7.661	  4.950e-03 	
         7.680	  4.950e-03 	
         7.699	  4.950e-03 	
         7.720	  4.950e-03 	
         7.741	  4.950e-03 	
         7.761	  4.950e-03 	
         7.780	  4.950e-03 	
         7.799	  4.930e-03 	
         7.819	  4.950e-03 	
         7.841	  4.950e-03 	
         7.861	  4.930e-03 	
         7.880	  4.950e-03 	
         7.900	  4.930e-03 	
         7.920	  4.930e-03 	
         7.941	  4.950e-03 	
         7.961	  4.950e-03 	
         7.980	  4.970e-03 	
         8.000	  4.950e-03 	
         8.021	  4.950e-03 	
         8.040	  4.930e-03 	
         8.061	  4.950e-03 	
         8.080	  4.970e-03 	
         8.100	  4.970e-03 	
         8.122	  4.950e-03 	
         8.139	  4.970e-03 	
         8.161	  4.950e-03 	
         8.180	  4.950e-03 	
         8.201	  4.950e-03 	
         8.221	  4.950e-03 	
         8.240	  4.950e-03 	
         8.259	  4.950e-03 	
         8.280	  4.950e-03 	
         8.301	  4.950e-03 	
         8.319	  4.930e-03 	
         8.341	  4.950e-03 	
         8.361	  4.970e-03 	
         8.380	  4.930e-03 	
         8.400	  4.950e-03 	
         8.421	  4.950e-03 	
         8.441	  4.950e-03 	
         8.461	  4.950e-03 	
         8.480	  4.950e-03 	
         8.500	  4.950e-03 	
         8.521	  4.930e-03 	
         8.541	  4.930e-03 	
         8.561	  4.950e-03 	
         8.580	  4.930e-03 	
         8.600	  4.930e-03 	
         8.623	  4.950e-03 	
         8.641	  4.950e-03 	
         8.661	  4.930e-03 	
         8.680	  4.930e-03 	
         8.700	  4.950e-03 	
         8.721	  4.950e-03 	
         8.741	  4.930e-03 	
         8.761	  4.950e-03 	
         8.780	  4.950e-03 	
         8.799	  4.950e-03 	
         8.821	  4.950e-03 	
         8.841	  4.950e-03 	
         8.861	  4.950e-03 	
         8.880	  4.930e-03 	
         8.899	  4.950e-03 	
         8.921	  4.950e-03 	
         8.941	  4.950e-03 	
         8.961	  4.950e-03 	
         8.980	  4.950e-03 	
         9.001	  4.950e-03 	
         9.020	  4.930e-03 	
         9.040	  4.950e-03 	
         9.061	  4.930e-03 	
         9.080	  4.930e-03 	
         9.100	  4.930e-03 	
         9.122	  4.950e-03 	
         9.140	  4.950e-03 	
         9.161	  4.950e-03 	
         9.180	  4.950e-03 	
         9.200	  4.930e-03 	
         9.221	  4.930e-03 	
         9.241	  4.950e-03 	
         9.260	  4.950e-03 	
         9.280	  4.950e-03 	
         9.300	  4.950e-03 	
         9.321	  4.930e-03 	
         9.341	  4.950e-03 	
         9.359	  4.970e-03 	
         9.380	  4.950e-03 	
         9.401	  4.930e-03 	
         9.421	  4.950e-03 	
         9.441	  4.950e-03 	
         9.461	  4.950e-03 	
         9.480	  4.950e-03 	
         9.499	  4.930e-03 	
         9.521	  4.930e-03 	
         9.541	  4.950e-03 	
         9.561	  4.950e-03 	
         9.580	  4.950e-03 	
         9.600	  4.930e-03 	
         9.623	  4.950e-03 	
         9.640	  4.950e-03 	
         9.661	  4.970e-03 	
         9.680	  4.950e-03 	
         9.700	  4.950e-03 	
         9.719	  4.950e-03 	
         9.741	  4.950e-03 	
         9.761	  4.950e-03 	
         9.780	  4.950e-03 	
         9.801	  4.930e-03 	
         9.820	  4.950e-03 	
         9.841	  4.950e-03 	
         9.861	  4.930e-03 	
         9.880	  4.930e-03 	
         9.901	  4.930e-03 	
         9.921	  4.950e-03 	
         9.941	  4.930e-03 	
         9.961	  4.930e-03 	
         9.980	  4.950e-03 	
        10.000	  4.950e-03 	
        10.021	  4.930e-03 	
        10.040	  4.950e-03 	
        10.060	  4.950e-03 	
        10.080	  4.930e-03 	
        10.100	  4.950e-03 	
        10.123	  4.950e-03 	
        10.141	  4.970e-03 	
        10.159	  4.950e-03 	
        10.180	  4.950e-03 	
        10.201	  4.950e-03 	
        10.221	  4.950e-03 	
        10.241	  4.950e-03 	
        10.261	  4.950e-03 	
        10.280	  4.950e-03 	
        10.300	  4.930e-03 	
        10.321	  4.930e-03 	
        10.341	  4.930e-03 	
        10.361	  4.950e-03 	
        10.380	  4.930e-03 	
        10.400	  4.950e-03 	
        10.421	  4.930e-03 	
        10.441	  4.950e-03 	
        10.461	  4.950e-03 	
        10.480	  4.970e-03 	
        10.500	  4.930e-03 	
        10.521	  4.950e-03 	
        10.541	  4.950e-03 	
        10.560	  4.950e-03 	
        10.580	  4.950e-03 	
        10.599	  4.930e-03 	
        10.623	  4.950e-03 	
        10.641	  4.930e-03 	
        10.661	  4.930e-03 	
        10.679	  4.950e-03 	
        10.699	  4.930e-03 	
        10.719	  4.950e-03 	
        10.741	  4.950e-03 	
        10.761	  4.950e-03 	
        10.780	  4.930e-03 	
        10.800	  4.950e-03 	
        10.819	  4.950e-03 	
        10.841	  4.950e-03 	
        10.861	  4.950e-03 	
        10.880	  4.930e-03 	
        10.901	  4.930e-03 	
        10.920	  4.950e-03 	
        10.941	  4.950e-03 	
        10.961	  4.950e-03 	
        10.980	  4.950e-03 	
        11.001	  4.950e-03 	
        11.021	  4.930e-03 	
        11.040	  4.950e-03 	
        11.061	  4.950e-03 	
        11.080	  4.970e-03 	
        11.100	  4.950e-03 	
        11.123	  4.950e-03 	
        11.141	  4.970e-03 	
        11.159	  4.950e-03 	
        11.180	  4.930e-03 	
        11.201	  4.930e-03 	
        11.221	  4.950e-03 	
        11.241	  4.930e-03 	
        11.259	  4.930e-03 	
        11.280	  4.950e-03 	
        11.301	  4.950e-03 	
        11.321	  4.930e-03 	
        11.341	  4.950e-03 	
        11.361	  4.950e-03 	
        11.380	  4.910e-03 	
        11.399	  4.930e-03 	
        11.421	  4.950e-03 	
        11.441	  4.930e-03 	
        11.461	  4.930e-03 	
        11.480	  4.930e-03 	
        11.500	  4.930e-03 	
        11.521	  4.950e-03 	
        11.541	  4.950e-03 	
        11.561	  4.950e-03 	
        11.580	  4.950e-03 	
        11.600	  4.950e-03 	
        11.623	  4.950e-03 	
        11.641	  4.930e-03 	
        11.661	  4.950e-03 	
        11.679	  4.930e-03 	
        11.699	  4.950e-03 	
        11.721	  4.930e-03 	
        11.741	  4.930e-03 	
        11.759	  4.930e-03 	
        11.780	  4.950e-03 	
        11.799	  4.950e-03 	
        11.821	  4.950e-03 	
        11.841	  4.930e-03 	
        11.861	  4.950e-03 	
        11.880	  4.930e-03 	
        11.899	  4.950e-03 	
        11.920	  4.930e-03 	
        11.941	  4.930e-03 	
        11.960	  4.930e-03 	
        11.980	  4.950e-03 	
        12.000	  4.950e-03 	
        12.020	  4.950e-03 	
        12.041	  4.950e-03 	
        12.061	  4.930e-03 	
        12.080	  4.930e-03 	
        12.100	  4.930e-03 	
        12.123	  4.950e-03 	
        12.141	  4.950e-03 	
        12.161	  4.950e-03 	
        12.180	  4.930e-03 	
        12.201	  4.950e-03 	
        12.221	  4.950e-03 	
        12.239	  4.950e-03 	
        12.260	  4.950e-03 	
        12.280	  4.930e-03 	
        12.301	  4.930e-03 	
        12.321	  4.970e-03 	
        12.341	  4.930e-03 	
        12.359	  4.970e-03 	
        12.380	  4.950e-03 	
        12.401	  4.930e-03 	
        12.421	  4.950e-03 	
        12.441	  4.930e-03 	
        12.461	  4.930e-03 	
        12.480	  4.950e-03 	
        12.500	  4.930e-03 	
        12.521	  4.950e-03 	
        12.541	  4.950e-03 	
        12.561	  4.950e-03 	
        12.580	  4.950e-03 	
        12.600	  4.930e-03 	
        12.623	  4.950e-03 	
        12.641	  4.950e-03 	
        12.661	  4.930e-03 	
        12.680	  4.930e-03 	
        12.700	  4.950e-03 	
        12.720	  4.930e-03 	
        12.741	  4.930e-03 	
        12.761	  4.950e-03 	
        12.780	  4.950e-03 	
        12.799	  4.950e-03 	
        12.821	  4.950e-03 	
        12.841	  4.950e-03 	
        12.861	  4.950e-03 	
        12.880	  4.950e-03 	
        12.899	  4.970e-03 	
        12.921	  4.950e-03 	
        12.941	  4.930e-03 	
        12.961	  4.930e-03 	
        12.980	  4.950e-03 	
        12.999	  4.930e-03 	
        13.019	  4.930e-03 	
        13.040	  4.950e-03 	
        13.060	  4.930e-03 	
        13.080	  4.930e-03 	
        13.100	  4.950e-03 	
        13.122	  4.950e-03 	
        13.141	  4.950e-03 	
        13.159	  4.950e-03 	
        13.179	  4.950e-03 	
        13.201	  4.950e-03 	
        13.220	  4.950e-03 	
        13.241	  4.990e-03 	
        13.261	  4.950e-03 	
        13.280	  4.950e-03 	
        13.301	  4.950e-03 	
        13.320	  4.950e-03 	
        13.339	  4.950e-03 	
        13.361	  4.950e-03 	
        13.380	  4.950e-03 	
        13.399	  4.950e-03 	
        13.421	  4.950e-03 	
        13.440	  4.950e-03 	
        13.460	  4.950e-03 	
        13.480	  4.950e-03 	
        13.500	  4.950e-03 	
        13.521	  4.970e-03 	
        13.541	  4.950e-03 	
        13.561	  4.930e-03 	
        13.580	  4.970e-03 	
        13.600	  4.970e-03 	
        13.623	  4.950e-03 	
        13.641	  4.950e-03 	
        13.661	  4.950e-03 	
        13.680	  4.950e-03 	
        13.700	  4.950e-03 	
        13.721	  4.950e-03 	
        13.741	  4.950e-03 	
        13.761	  4.950e-03 	
        13.780	  4.950e-03 	
        13.799	  4.950e-03 	
        13.821	  4.970e-03 	
        13.840	  4.950e-03 	
        13.861	  4.950e-03 	
        13.880	  4.930e-03 	
        13.900	  4.930e-03 	
        13.921	  4.930e-03 	
        13.941	  4.930e-03 	
        13.961	  4.950e-03 	
        13.980	  4.950e-03 	
        13.999	  4.950e-03 	
        14.019	  4.950e-03 	
        14.039	  4.930e-03 	
        14.061	  4.950e-03 	
        14.080	  4.950e-03 	
        14.101	  4.950e-03 	
        14.123	  4.950e-03 	
        14.141	  4.990e-03 	
        14.160	  4.970e-03 	
        14.180	  4.930e-03 	
        14.199	  4.950e-03 	
        14.221	  4.950e-03 	
        14.241	  4.930e-03 	
        14.261	  4.950e-03 	
        14.280	  4.950e-03 	
        14.301	  4.950e-03 	
        14.320	  4.930e-03 	
        14.341	  4.950e-03 	
        14.361	  4.970e-03 	
        14.380	  4.950e-03 	
        14.401	  4.950e-03 	
        14.420	  4.950e-03 	
        14.441	  4.950e-03 	
        14.461	  4.930e-03 	
        14.480	  4.950e-03 	
        14.501	  4.950e-03 	
        14.520	  4.950e-03 	
        14.541	  4.950e-03 	
        14.561	  4.950e-03 	
        14.580	  4.950e-03 	
        14.600	  4.950e-03 	
        14.623	  4.930e-03 	
        14.641	  4.950e-03 	
        14.660	  4.970e-03 	
        14.680	  4.950e-03 	
        14.701	  4.970e-03 	
        14.720	  4.950e-03 	
        14.740	  4.950e-03 	
        14.761	  4.950e-03 	
        14.780	  4.950e-03 	
        14.800	  4.950e-03 	
        14.819	  4.930e-03 	
        14.841	  4.950e-03 	
        14.861	  4.950e-03 	
        14.880	  4.950e-03 	
        14.899	  4.950e-03 	
        14.921	  4.950e-03 	
        14.941	  4.950e-03 	
        14.961	  4.950e-03 	
        14.979	  4.930e-03 	
        14.999	  4.950e-03 	
        15.020	  4.930e-03 	
        15.041	  4.930e-03 	
        15.059	  4.950e-03 	
        15.080	  4.950e-03 	
        15.100	  4.950e-03 	
        15.123	  4.930e-03 	
        15.141	  4.970e-03 	
        15.161	  4.950e-03 	
        15.180	  4.930e-03 	
        15.201	  4.950e-03 	
        15.220	  4.930e-03 	
        15.240	  4.950e-03 	
        15.261	  4.950e-03 	
        15.280	  4.950e-03 	
        15.301	  4.950e-03 	
        15.321	  4.930e-03 	
        15.341	  4.930e-03 	
        15.359	  4.970e-03 	
        15.379	  4.930e-03 	
        15.401	  4.950e-03 	
        15.420	  4.930e-03 	
        15.441	  4.930e-03 	
        15.459	  4.950e-03 	
        15.480	  4.950e-03 	
        15.501	  4.950e-03 	
        15.521	  4.950e-03 	
        15.541	  4.930e-03 	
        15.560	  4.950e-03 	
        15.580	  4.950e-03 	
        15.600	  4.950e-03 	
        15.623	  4.950e-03 	
        15.641	  4.950e-03 	
        15.660	  4.950e-03 	
        15.680	  4.970e-03 	
        15.700	  4.950e-03 	
        15.721	  4.950e-03 	
        15.741	  4.950e-03 	
        15.761	  4.970e-03 	
        15.779	  4.950e-03 	
        15.799	  4.950e-03 	
        15.819	  4.950e-03 	
        15.841	  4.950e-03 	
        15.861	  4.950e-03 	
        15.880	  4.930e-03 	
        15.900	  4.950e-03 	
        15.920	  4.930e-03 	
        15.940	  4.950e-03 	
        15.961	  4.950e-03 	
        15.979	  4.950e-03 	
        16.001	  4.950e-03 	
        16.020	  4.950e-03 	
        16.041	  4.950e-03 	
        16.061	  4.970e-03 	
        16.080	  4.930e-03 	
        16.101	  4.950e-03 	
        16.123	  4.950e-03 	
        16.141	  4.970e-03 	
        16.161	  4.950e-03 	
        16.180	  4.950e-03 	
        16.201	  4.950e-03 	
        16.221	  4.950e-03 	
        16.240	  4.950e-03 	
        16.261	  4.950e-03 	
        16.280	  4.930e-03 	
        16.300	  4.950e-03 	
        16.321	  4.950e-03 	
        16.341	  4.950e-03 	
        16.361	  4.970e-03 	
        16.380	  4.950e-03 	
        16.401	  4.950e-03 	
        16.421	  4.930e-03 	
        16.441	  4.930e-03 	
        16.460	  4.950e-03 	
        16.479	  4.930e-03 	
        16.500	  4.930e-03 	
        16.521	  4.950e-03 	
        16.541	  4.930e-03 	
        16.561	  4.950e-03 	
        16.580	  4.950e-03 	
        16.600	  4.930e-03 	
        16.621	  4.950e-03 	
        16.641	  4.950e-03 	
        16.660	  4.930e-03 	
        16.680	  4.950e-03 	
        16.701	  5.030e-03 	
        16.719	  4.950e-03 	
        16.741	  4.950e-03 	
        16.761	  4.930e-03 	
        16.780	  4.950e-03 	
        16.800	  4.950e-03 	
        16.821	  4.930e-03 	
        16.840	  4.950e-03 	
        16.861	  4.950e-03 	
        16.879	  4.950e-03 	
        16.901	  4.950e-03 	
        16.920	  4.950e-03 	
        16.941	  4.950e-03 	
        16.960	  4.950e-03 	
        16.980	  4.950e-03 	
        17.001	  4.950e-03 	
        17.021	  4.930e-03 	
        17.040	  4.950e-03 	
        17.061	  4.950e-03 	
        17.080	  4.950e-03 	
        17.100	  4.950e-03 	
        17.123	  4.950e-03 	
        17.140	  4.970e-03 	
        17.161	  4.950e-03 	
        17.180	  4.950e-03 	
        17.200	  4.930e-03 	
        17.221	  4.930e-03 	
        17.239	  4.950e-03 	
        17.261	  4.950e-03 	
        17.280	  4.950e-03 	
        17.299	  4.930e-03 	
        17.321	  4.950e-03 	
        17.341	  4.930e-03 	
        17.361	  4.950e-03 	
        17.379	  4.930e-03 	
        17.399	  4.950e-03 	
        17.420	  4.930e-03 	
        17.440	  4.930e-03 	
        17.461	  4.950e-03 	
        17.480	  4.930e-03 	
        17.500	  4.950e-03 	
        17.521	  4.950e-03 	
        17.541	  4.950e-03 	
        17.561	  4.950e-03 	
        17.580	  4.950e-03 	
        17.600	  4.930e-03 	
        17.622	  4.930e-03 	
        17.641	  4.950e-03 	
        17.661	  4.950e-03 	
        17.680	  4.950e-03 	
        17.701	  4.950e-03 	
        17.721	  4.950e-03 	
        17.740	  4.950e-03 	
        17.760	  4.950e-03 	
        17.780	  4.950e-03 	
        17.800	  4.950e-03 	
        17.821	  4.950e-03 	
        17.841	  4.950e-03 	
        17.859	  4.970e-03 	
        17.880	  4.950e-03 	
        17.901	  4.950e-03 	
        17.921	  4.970e-03 	
        17.941	  4.970e-03 	
        17.959	  4.950e-03 	
        17.980	  4.950e-03 	
        18.000	  4.950e-03 	
        18.021	  4.950e-03 	
        18.041	  4.970e-03 	
        18.061	  4.950e-03 	
        18.080	  4.930e-03 	
        18.100	  4.950e-03 	
        18.122	  4.970e-03 	
        18.141	  4.990e-03 	
        18.161	  4.950e-03 	
        18.180	  4.930e-03 	
        18.200	  4.950e-03 	
        18.220	  4.950e-03 	
        18.240	  4.950e-03 	
        18.261	  4.950e-03 	
        18.280	  4.970e-03 	
        18.300	  4.950e-03 	
        18.319	  4.950e-03 	
        18.341	  4.950e-03 	
        18.361	  4.990e-03 	
        18.380	  4.950e-03 	
        18.400	  4.950e-03 	
        18.421	  4.950e-03 	
        18.441	  4.950e-03 	
        18.461	  4.950e-03 	
        18.480	  4.950e-03 	
        18.499	  4.950e-03 	
        18.521	  4.950e-03 	
        18.541	  4.950e-03 	
        18.561	  4.970e-03 	
        18.580	  4.950e-03 	
        18.599	  4.970e-03 	
        18.623	  4.970e-03 	
        18.641	  4.950e-03 	
        18.660	  4.950e-03 	
        18.680	  4.950e-03 	
        18.700	  4.970e-03 	
        18.721	  4.970e-03 	
        18.741	  4.950e-03 	
        18.761	  4.970e-03 	
        18.780	  4.970e-03 	
        18.799	  4.970e-03 	
        18.821	  4.950e-03 	
        18.840	  4.970e-03 	
        18.860	  4.970e-03 	
        18.880	  4.950e-03 	
        18.901	  4.970e-03 	
        18.920	  4.970e-03 	
        18.939	  4.950e-03 	
        18.961	  4.950e-03 	
        18.980	  4.970e-03 	
        19.001	  4.950e-03 	
        19.019	  4.950e-03 	
        19.040	  4.970e-03 	
        19.061	  4.950e-03 	
        19.079	  4.950e-03 	
        19.100	  4.970e-03 	
        19.123	  4.950e-03 	
        19.140	  4.970e-03 	
        19.161	  4.950e-03 	
        19.180	  4.950e-03 	
        19.200	  4.950e-03 	
        19.221	  4.950e-03 	
        19.241	  4.950e-03 	
        19.260	  4.950e-03 	
        19.280	  4.950e-03 	
        19.300	  4.930e-03 	
        19.321	  4.950e-03 	
        19.341	  4.950e-03 	
        19.361	  4.970e-03 	
        19.380	  4.950e-03 	
        19.401	  4.950e-03 	
        19.420	  4.950e-03 	
        19.440	  4.970e-03 	
        19.461	  4.950e-03 	
        19.480	  4.950e-03 	
        19.499	  4.950e-03 	
        19.519	  4.950e-03 	
        19.541	  4.950e-03 	
        19.561	  4.950e-03 	
        19.580	  4.950e-03 	
        19.601	  4.970e-03 	
        19.623	  4.930e-03 	
        19.641	  4.950e-03 	
        19.661	  4.950e-03 	
        19.680	  4.930e-03 	
        19.699	  4.950e-03 	
        19.719	  4.950e-03 	
        19.741	  4.950e-03 	
        19.761	  4.950e-03 	
        19.780	  4.950e-03 	
        19.800	  4.950e-03 	
        19.821	  4.930e-03 	
        19.840	  4.950e-03 	
        19.861	  4.950e-03 	
        19.880	  4.950e-03 	
        19.901	  4.930e-03 	
        19.921	  4.930e-03 	
        19.940	  4.930e-03 	
        19.961	  4.930e-03 	
        19.980	  4.950e-03 	
        20.001	  4.950e-03 	
        20.020	  4.950e-03 	
        20.039	  4.950e-03 	
        20.061	  4.930e-03 	
        20.080	  4.930e-03 	
        20.100	  4.930e-03 	
        20.123	  4.950e-03 	
        20.141	  4.970e-03 	
        20.161	  4.950e-03 	
        20.180	  4.930e-03 	
        20.200	  4.930e-03 	
        20.221	  4.930e-03 	
        20.241	  4.930e-03 	
        20.261	  4.930e-03 	
        20.279	  4.930e-03 	
        20.299	  4.950e-03 	
        20.321	  4.930e-03 	
        20.341	  4.950e-03 	
        20.361	  4.950e-03 	
        20.380	  4.930e-03 	
        20.400	  4.930e-03 	
        20.419	  4.930e-03 	
        20.441	  4.950e-03 	
        20.461	  4.930e-03 	
        20.480	  4.930e-03 	
        20.501	  4.930e-03 	
        20.520	  4.930e-03 	
        20.540	  4.950e-03 	
        20.561	  5.010e-03 	
        20.580	  4.930e-03 	
        20.600	  4.950e-03 	
        20.622	  4.930e-03 	
        20.641	  4.950e-03 	
        20.661	  4.930e-03 	
        20.680	  4.930e-03 	
        20.701	  4.950e-03 	
        20.720	  4.930e-03 	
        20.739	  4.950e-03 	
        20.761	  4.950e-03 	
        20.780	  4.930e-03 	
        20.800	  4.950e-03 	
        20.821	  4.930e-03 	
        20.841	  4.950e-03 	
        20.859	  4.950e-03 	
        20.880	  4.950e-03 	
        20.901	  4.950e-03 	
        20.920	  4.950e-03 	
        20.940	  4.930e-03 	
        20.960	  4.930e-03 	
        20.980	  4.930e-03 	
        21.001	  4.930e-03 	
        21.021	  4.930e-03 	
        21.041	  4.930e-03 	
        21.061	  4.950e-03 	
        21.080	  4.950e-03 	
        21.099	  4.930e-03 	
        21.123	  4.950e-03 	
        21.141	  4.950e-03 	
        21.161	  4.950e-03 	
        21.180	  4.950e-03 	
        21.199	  4.950e-03 	
        21.221	  4.950e-03 	
        21.241	  4.930e-03 	
        21.261	  4.950e-03 	
        21.280	  4.950e-03 	
        21.300	  4.950e-03 	
        21.320	  4.950e-03 	
        21.341	  4.950e-03 	
        21.361	  4.970e-03 	
        21.380	  4.930e-03 	
        21.401	  4.950e-03 	
        21.420	  4.950e-03 	
        21.440	  4.950e-03 	
        21.460	  4.930e-03 	
        21.480	  4.950e-03 	
        21.501	  4.950e-03 	
        21.520	  4.950e-03 	
        21.541	  4.950e-03 	
        21.559	  4.970e-03 	
        21.580	  4.950e-03 	
        21.601	  4.950e-03 	
        21.623	  4.950e-03 	
        21.641	  4.930e-03 	
        21.661	  4.950e-03 	
        21.680	  4.950e-03 	
        21.701	  4.950e-03 	
        21.721	  4.950e-03 	
        21.740	  4.950e-03 	
        21.759	  4.950e-03 	
        21.780	  4.950e-03 	
        21.800	  4.950e-03 	
        21.821	  4.950e-03 	
        21.841	  4.970e-03 	
        21.861	  4.950e-03 	
        21.879	  4.950e-03 	
        21.901	  4.930e-03 	
        21.920	  4.950e-03 	
        21.940	  4.950e-03 	
        21.961	  4.950e-03 	
        21.979	  4.950e-03 	
        21.999	  4.950e-03 	
        22.019	  4.950e-03 	
        22.041	  4.950e-03 	
        22.061	  4.950e-03 	
        22.080	  4.930e-03 	
        22.099	  4.950e-03 	
        22.121	  4.950e-03 	
        22.141	  4.970e-03 	
        22.161	  4.970e-03 	
        22.180	  4.950e-03 	
        22.200	  4.930e-03 	
        22.221	  4.930e-03 	
        22.241	  4.950e-03 	
        22.261	  4.950e-03 	
        22.280	  4.950e-03 	
        22.300	  4.950e-03 	
        22.321	  4.930e-03 	
        22.341	  4.950e-03 	
        22.359	  4.970e-03 	
        22.380	  4.950e-03 	
        22.401	  4.930e-03 	
        22.421	  4.950e-03 	
        22.441	  4.930e-03 	
        22.460	  4.950e-03 	
        22.479	  4.950e-03 	
        22.500	  4.930e-03 	
        22.521	  4.930e-03 	
        22.540	  4.950e-03 	
        22.561	  4.930e-03 	
        22.580	  4.930e-03 	
        22.601	  4.930e-03 	
        22.623	  4.930e-03 	
        22.641	  4.950e-03 	
        22.661	  4.950e-03 	
        22.680	  4.950e-03 	
        22.701	  4.950e-03 	
        22.721	  4.950e-03 	
        22.741	  4.950e-03 	
        22.761	  4.950e-03 	
        22.780	  4.950e-03 	
        22.800	  4.950e-03 	
        22.820	  4.950e-03 	
        22.841	  4.930e-03 	
        22.861	  4.950e-03 	
        22.880	  4.950e-03 	
        22.900	  4.950e-03 	
        22.920	  4.950e-03 	
        22.941	  4.950e-03 	
        22.961	  4.930e-03 	
        22.980	  4.930e-03 	
        23.001	  4.950e-03 	
        23.021	  4.950e-03 	
        23.040	  4.930e-03 	
        23.061	  4.950e-03 	
        23.080	  4.950e-03 	
        23.100	  4.950e-03 	
        23.122	  4.930e-03 	
        23.140	  4.970e-03 	
        23.160	  4.930e-03 	
        23.180	  4.950e-03 	
        23.200	  4.970e-03 	
        23.220	  4.950e-03 	
        23.241	  4.950e-03 	
        23.261	  4.930e-03 	
        23.280	  4.950e-03 	
        23.300	  4.930e-03 	
        23.321	  4.930e-03 	
        23.341	  4.930e-03 	
        23.361	  4.950e-03 	
        23.380	  4.950e-03 	
        23.400	  4.950e-03 	
        23.421	  4.930e-03 	
        23.441	  4.930e-03 	
        23.461	  4.950e-03 	
        23.480	  4.930e-03 	
        23.499	  4.930e-03 	
        23.521	  4.950e-03 	
        23.540	  4.930e-03 	
        23.561	  4.930e-03 	
        23.580	  4.930e-03 	
        23.600	  4.930e-03 	
        23.621	  4.930e-03 	
        23.641	  4.930e-03 	
        23.660	  4.930e-03 	
        23.680	  4.930e-03 	
        23.701	  4.950e-03 	
        23.720	  4.950e-03 	
        23.740	  4.930e-03 	
        23.761	  4.950e-03 	
        23.780	  4.930e-03 	
        23.800	  4.930e-03 	
        23.820	  4.930e-03 	
        23.841	  4.930e-03 	
        23.861	  4.950e-03 	
        23.880	  4.950e-03 	
        23.901	  4.930e-03 	
        23.920	  4.930e-03 	
        23.941	  4.930e-03 	
        23.960	  4.930e-03 	
        23.980	  4.930e-03 	
        24.001	  4.930e-03 	
        24.021	  4.950e-03 	
        24.041	  4.930e-03 	
        24.060	  4.930e-03 	
        24.080	  4.930e-03 	
        24.100	  4.930e-03 	
        24.123	  4.950e-03 	
        24.141	  4.970e-03 	
        24.161	  4.930e-03 	
        24.180	  4.930e-03 	
        24.199	  4.950e-03 	
        24.221	  4.930e-03 	
        24.241	  4.930e-03 	
        24.260	  4.930e-03 	
        24.280	  4.930e-03 	
        24.299	  4.910e-03 	
        24.320	  4.930e-03 	
        24.341	  4.930e-03 	
        24.361	  4.950e-03 	
        24.380	  4.930e-03 	
        24.399	  4.930e-03 	
        24.421	  4.950e-03 	
        24.441	  4.930e-03 	
        24.461	  4.950e-03 	
        24.480	  4.930e-03 	
        24.500	  4.930e-03 	
        24.520	  4.950e-03 	
        24.541	  4.950e-03 	
        24.561	  4.930e-03 	
        24.580	  4.930e-03 	
        24.600	  4.930e-03 	
        24.621	  4.950e-03 	
        24.641	  4.930e-03 	
        24.661	  4.930e-03 	
        24.680	  4.950e-03 	
        24.701	  4.950e-03 	
        24.721	  4.930e-03 	
        24.741	  4.950e-03 	
        24.760	  4.950e-03 	
        24.780	  4.950e-03 	
        24.800	  4.950e-03 	
        24.821	  4.950e-03 	
        24.841	  4.950e-03 	
        24.859	  4.930e-03 	
        24.880	  4.930e-03 	
        24.899	  4.950e-03 	
        24.921	  4.950e-03 	
        24.941	  4.950e-03 	
        24.961	  4.950e-03 	
        24.980	  4.950e-03 	
        25.000	  4.930e-03 	
        25.021	  4.950e-03 	
        25.041	  4.930e-03 	
        25.061	  4.950e-03 	
        25.080	  4.950e-03 	
        25.099	  4.970e-03 	
        25.123	  4.950e-03 	
        25.141	  4.970e-03 	
        25.161	  4.930e-03 	
        25.180	  4.950e-03 	
        25.199	  4.950e-03 	
        25.221	  4.950e-03 	
        25.240	  4.970e-03 	
        25.260	  4.970e-03 	
        25.280	  4.950e-03 	
        25.301	  4.950e-03 	
        25.321	  4.930e-03 	
        25.340	  4.950e-03 	
        25.361	  4.990e-03 	
        25.380	  4.950e-03 	
        25.400	  4.930e-03 	
        25.420	  4.950e-03 	
        25.440	  4.970e-03 	
        25.461	  4.950e-03 	
        25.480	  4.950e-03 	
        25.501	  4.930e-03 	
        25.521	  4.950e-03 	
        25.541	  4.950e-03 	
        25.559	  4.950e-03 	
        25.580	  4.950e-03 	
        25.600	  4.950e-03 	
        25.622	  4.930e-03 	
        25.639	  4.950e-03 	
        25.661	  4.950e-03 	
        25.680	  4.950e-03 	
        25.700	  4.950e-03 	
        25.721	  4.950e-03 	
        25.741	  4.950e-03 	
        25.761	  4.950e-03 	
        25.780	  4.950e-03 	
        25.800	  4.970e-03 	
        25.821	  4.950e-03 	
        25.841	  4.950e-03 	
        25.861	  4.950e-03 	
        25.880	  4.950e-03 	
        25.899	  4.930e-03 	
        25.920	  4.950e-03 	
        25.941	  4.930e-03 	
        25.961	  4.950e-03 	
        25.980	  4.950e-03 	
        25.999	  4.950e-03 	
        26.021	  4.950e-03 	
        26.041	  4.970e-03 	
        26.061	  4.950e-03 	
        26.080	  4.950e-03 	
        26.099	  4.930e-03 	
        26.123	  4.950e-03 	
        26.141	  4.950e-03 	
        26.161	  4.950e-03 	
        26.180	  4.950e-03 	
        26.199	  4.950e-03 	
        26.221	  4.950e-03 	
        26.241	  4.950e-03 	
        26.261	  4.950e-03 	
        26.280	  4.950e-03 	
        26.301	  4.950e-03 	
        26.321	  4.950e-03 	
        26.341	  4.950e-03 	
        26.361	  4.970e-03 	
        26.379	  4.950e-03 	
        26.401	  4.950e-03 	
        26.421	  4.950e-03 	
        26.440	  4.950e-03 	
        26.461	  4.950e-03 	
        26.480	  4.950e-03 	
        26.501	  4.950e-03 	
        26.521	  4.950e-03 	
        26.540	  4.950e-03 	
        26.560	  4.950e-03 	
        26.580	  4.950e-03 	
        26.600	  4.970e-03 	
        26.622	  4.950e-03 	
        26.641	  4.950e-03 	
        26.661	  4.950e-03 	
        26.680	  4.950e-03 	
        26.700	  4.950e-03 	
        26.721	  4.950e-03 	
        26.741	  4.950e-03 	
        26.759	  4.950e-03 	
        26.780	  4.930e-03 	
        26.801	  4.950e-03 	
        26.821	  4.950e-03 	
        26.841	  4.970e-03 	
        26.861	  4.950e-03 	
        26.880	  4.930e-03 	
        26.900	  4.930e-03 	
        26.920	  4.950e-03 	
        26.940	  4.950e-03 	
        26.959	  4.970e-03 	
        26.980	  4.930e-03 	
        26.999	  4.930e-03 	
        27.020	  4.950e-03 	
        27.041	  4.950e-03 	
        27.061	  4.930e-03 	
        27.079	  4.930e-03 	
        27.099	  4.930e-03 	
        27.123	  4.930e-03 	
        27.140	  4.930e-03 	
        27.161	  4.930e-03 	
        27.180	  4.930e-03 	
        27.199	  4.930e-03 	
        27.221	  4.910e-03 	
        27.241	  4.950e-03 	
        27.261	  4.950e-03 	
        27.280	  4.950e-03 	
        27.300	  4.950e-03 	
        27.321	  4.930e-03 	
        27.341	  4.930e-03 	
        27.361	  4.970e-03 	
        27.380	  4.930e-03 	
        27.401	  4.950e-03 	
        27.420	  4.930e-03 	
        27.441	  4.950e-03 	
        27.460	  4.930e-03 	
        27.480	  4.930e-03 	
        27.500	  4.930e-03 	
        27.521	  4.930e-03 	
        27.540	  4.950e-03 	
        27.561	  4.930e-03 	
        27.580	  4.950e-03 	
        27.600	  4.930e-03 	
        27.623	  4.950e-03 	
        27.640	  4.930e-03 	
        27.659	  4.950e-03 	
        27.680	  4.950e-03 	
        27.701	  4.950e-03 	
        27.721	  4.950e-03 	
        27.741	  4.950e-03 	
        27.759	  4.950e-03 	
        27.780	  4.930e-03 	
        27.800	  4.930e-03 	
        27.821	  4.930e-03 	
        27.841	  4.950e-03 	
        27.859	  4.930e-03 	
        27.879	  4.950e-03 	
        27.901	  4.950e-03 	
        27.921	  4.950e-03 	
        27.940	  4.950e-03 	
        27.960	  4.930e-03 	
        27.980	  4.950e-03 	
        28.000	  4.930e-03 	
        28.020	  4.950e-03 	
        28.041	  4.930e-03 	
        28.061	  4.950e-03 	
        28.080	  4.950e-03 	
        28.100	  4.950e-03 	
        28.123	  4.930e-03 	
        28.141	  4.970e-03 	
        28.161	  4.930e-03 	
        28.180	  4.930e-03 	
        28.199	  4.930e-03 	
        28.221	  4.930e-03 	
        28.241	  4.930e-03 	
        28.261	  4.950e-03 	
        28.279	  4.950e-03 	
        28.299	  4.950e-03 	
        28.319	  4.930e-03 	
        28.340	  4.950e-03 	
        28.361	  4.970e-03 	
        28.380	  4.950e-03 	
        28.399	  4.950e-03 	
        28.420	  4.950e-03 	
        28.441	  4.930e-03 	
        28.460	  4.930e-03 	
        28.480	  4.950e-03 	
        28.501	  4.930e-03 	
        28.520	  4.930e-03 	
        28.541	  4.930e-03 	
        28.561	  4.930e-03 	
        28.580	  4.930e-03 	
        28.600	  4.930e-03 	
        28.621	  4.950e-03 	
        28.641	  4.930e-03 	
        28.661	  4.930e-03 	
        28.679	  4.950e-03 	
        28.700	  4.930e-03 	
        28.721	  4.950e-03 	
        28.741	  4.950e-03 	
        28.761	  4.950e-03 	
        28.780	  4.950e-03 	
        28.800	  4.950e-03 	
        28.821	  4.950e-03 	
        28.841	  4.950e-03 	
        28.861	  4.950e-03 	
        28.880	  4.970e-03 	
        28.901	  4.950e-03 	
        28.921	  4.950e-03 	
        28.941	  4.950e-03 	
        28.959	  4.950e-03 	
        28.979	  4.950e-03 	
        29.000	  4.950e-03 	
        29.020	  4.950e-03 	
        29.041	  4.930e-03 	
        29.060	  4.950e-03 	
        29.080	  4.950e-03 	
        29.100	  4.930e-03 	
        29.122	  4.950e-03 	
        29.141	  4.970e-03 	
        29.161	  4.950e-03 	
        29.180	  4.950e-03 	
        29.200	  4.950e-03 	
        29.221	  4.950e-03 	
        29.241	  4.950e-03 	
        29.261	  4.970e-03 	
        29.279	  4.950e-03 	
        29.299	  4.950e-03 	
        29.321	  4.950e-03 	
        29.341	  4.950e-03 	
        29.361	  4.970e-03 	
        29.380	  4.950e-03 	
        29.399	  4.950e-03 	
        29.421	  4.930e-03 	
        29.441	  4.950e-03 	
        29.461	  4.930e-03 	
        29.480	  4.930e-03 	
        29.499	  4.950e-03 	
        29.521	  4.950e-03 	
        29.541	  4.950e-03 	
        29.560	  4.950e-03 	
        29.580	  4.950e-03 	
        29.600	  4.950e-03 	
        29.620	  4.930e-03 	
        29.641	  4.950e-03 	
        29.661	  4.950e-03 	
        29.680	  4.950e-03 	
        29.701	  4.950e-03 	
        29.721	  4.950e-03 	
        29.740	  4.950e-03 	
        29.761	  4.950e-03 	
        29.780	  4.950e-03 	
        29.800	  4.950e-03 	
        29.821	  4.950e-03 	
        29.840	  4.950e-03 	
        29.860	  4.930e-03 	
        29.880	  4.950e-03 	
        29.901	  4.950e-03 	
        29.921	  4.950e-03 	
        29.941	  4.970e-03 	
        29.960	  4.950e-03 	
        29.980	  4.950e-03 	
        30.001	  4.950e-03 	
        30.021	  4.950e-03 	
        30.041	  4.950e-03 	
        30.059	  4.950e-03 	
        30.080	  4.950e-03 	
        30.101	  4.950e-03 	
        30.121	  4.950e-03 	
        30.141	  4.970e-03 	
        30.161	  4.950e-03 	
        30.180	  4.950e-03 	
        30.200	  4.950e-03 	
        30.221	  4.950e-03 	
        30.241	  4.950e-03 	
        30.261	  4.950e-03 	
        30.280	  4.950e-03 	
        30.299	  4.950e-03 	
        30.321	  4.950e-03 	
        30.341	  4.950e-03 	
        30.361	  4.970e-03 	
        30.380	  4.950e-03 	
        30.401	  4.970e-03 	
        30.421	  4.970e-03 	
        30.441	  4.950e-03 	
        30.461	  4.950e-03 	
        30.480	  4.950e-03 	
        30.501	  4.970e-03 	
        30.520	  4.970e-03 	
        30.541	  4.970e-03 	
        30.561	  4.970e-03 	
        30.580	  4.950e-03 	
        30.600	  4.950e-03 	
        30.620	  4.950e-03 	
        30.640	  4.970e-03 	
        30.660	  4.950e-03 	
        30.680	  4.950e-03 	
        30.701	  4.970e-03 	
        30.721	  4.950e-03 	
        30.740	  4.950e-03 	
        30.761	  4.950e-03 	
        30.780	  4.950e-03 	
        30.800	  4.950e-03 	
        30.821	  4.950e-03 	
        30.841	  4.950e-03 	
        30.859	  4.950e-03 	
        30.880	  4.950e-03 	
        30.900	  4.970e-03 	
        30.920	  4.950e-03 	
        30.941	  4.950e-03 	
        30.961	  4.950e-03 	
        30.980	  4.970e-03 	
        31.001	  4.970e-03 	
        31.021	  4.950e-03 	
        31.041	  4.930e-03 	
        31.061	  4.970e-03 	
        31.080	  4.950e-03 	
        31.099	  4.950e-03 	
        31.121	  4.950e-03 	
        31.141	  4.970e-03 	
        31.161	  4.970e-03 	
        31.180	  4.950e-03 	
        31.200	  4.950e-03 	
        31.221	  4.950e-03 	
        31.241	  4.950e-03 	
        31.261	  4.950e-03 	
        31.280	  4.950e-03 	
        31.301	  4.950e-03 	
        31.321	  4.950e-03 	
        31.341	  4.970e-03 	
        31.361	  4.970e-03 	
        31.380	  4.950e-03 	
        31.401	  4.950e-03 	
        31.421	  4.950e-03 	
        31.440	  4.950e-03 	
        31.461	  4.950e-03 	
        31.480	  4.970e-03 	
        31.499	  4.950e-03 	
        31.520	  4.970e-03 	
        31.541	  4.950e-03 	
        31.561	  4.950e-03 	
        31.579	  4.970e-03 	
        31.600	  4.950e-03 	
        31.620	  4.930e-03 	
        31.641	  4.970e-03 	
        31.660	  4.950e-03 	
        31.680	  4.950e-03 	
        31.701	  4.950e-03 	
        31.720	  4.950e-03 	
        31.741	  4.950e-03 	
        31.761	  4.930e-03 	
        31.780	  4.930e-03 	
        31.800	  4.950e-03 	
        31.820	  4.950e-03 	
        31.841	  4.950e-03 	
        31.861	  4.950e-03 	
        31.880	  4.930e-03 	
        31.901	  4.930e-03 	
        31.921	  4.950e-03 	
        31.941	  4.930e-03 	
        31.961	  4.950e-03 	
        31.980	  4.950e-03 	
        32.000	  4.950e-03 	
        32.020	  4.950e-03 	
        32.039	  4.950e-03 	
        32.060	  4.950e-03 	
        32.080	  4.930e-03 	
        32.100	  4.950e-03 	
        32.120	  4.950e-03 	
        32.141	  4.990e-03 	
        32.161	  4.950e-03 	
        32.180	  4.950e-03 	
        32.200	  4.950e-03 	
        32.221	  4.950e-03 	
        32.241	  4.950e-03 	
        32.261	  4.970e-03 	
        32.280	  4.950e-03 	
        32.300	  4.950e-03 	
        32.321	  4.930e-03 	
        32.341	  4.950e-03 	
        32.360	  4.950e-03 	
        32.380	  4.950e-03 	
        32.400	  4.970e-03 	
        32.420	  4.950e-03 	
        32.441	  4.950e-03 	
        32.461	  4.950e-03 	
        32.480	  4.950e-03 	
        32.499	  4.950e-03 	
        32.521	  4.950e-03 	
        32.541	  4.950e-03 	
        32.560	  4.950e-03 	
        32.580	  4.950e-03 	
        32.600	  4.950e-03 	
        32.621	  4.950e-03 	
        32.641	  4.950e-03 	
        32.661	  4.930e-03 	
        32.680	  4.930e-03 	
        32.699	  4.930e-03 	
        32.721	  4.950e-03 	
        32.739	  4.950e-03 	
        32.761	  4.950e-03 	
        32.780	  4.950e-03 	
        32.800	  4.950e-03 	
        32.820	  4.950e-03 	
        32.841	  4.950e-03 	
        32.861	  4.950e-03 	
        32.880	  4.950e-03 	
        32.900	  4.950e-03 	
        32.920	  4.950e-03 	
        32.941	  4.930e-03 	
        32.960	  4.950e-03 	
        32.980	  4.930e-03 	
        33.001	  4.950e-03 	
        33.021	  4.950e-03 	
        33.040	  4.950e-03 	
        33.061	  4.950e-03 	
        33.080	  4.950e-03 	
        33.100	  4.950e-03 	
        33.121	  4.950e-03 	
        33.139	  4.970e-03 	
        33.159	  4.950e-03 	
        33.180	  4.950e-03 	
        33.201	  4.950e-03 	
        33.221	  4.970e-03 	
        33.241	  4.950e-03 	
        33.259	  4.950e-03 	
        33.280	  4.950e-03 	
        33.300	  4.950e-03 	
        33.321	  4.950e-03 	
        33.341	  4.970e-03 	
        33.361	  4.970e-03 	
        33.380	  4.950e-03 	
        33.400	  4.930e-03 	
        33.420	  4.950e-03 	
        33.440	  4.950e-03 	
        33.461	  4.950e-03 	
        33.480	  4.950e-03 	
        33.500	  4.950e-03 	
        33.521	  4.950e-03 	
        33.541	  4.950e-03 	
        33.561	  4.950e-03 	
        33.579	  4.970e-03 	
        33.599	  4.950e-03 	
        33.621	  4.950e-03 	
        33.641	  4.950e-03 	
        33.661	  4.950e-03 	
        33.680	  4.930e-03 	
        33.700	  4.950e-03 	
        33.721	  4.950e-03 	
        33.741	  4.930e-03 	
        33.759	  4.950e-03 	
        33.780	  4.950e-03 	
        33.799	  4.970e-03 	
        33.820	  4.930e-03 	
        33.841	  4.950e-03 	
        33.861	  4.950e-03 	
        33.880	  4.950e-03 	
        33.899	  4.950e-03 	
        33.921	  4.970e-03 	
        33.940	  4.950e-03 	
        33.961	  4.930e-03 	
        33.980	  4.950e-03 	
        34.001	  4.950e-03 	
        34.020	  4.930e-03 	
        34.041	  4.950e-03 	
        34.061	  4.950e-03 	
        34.080	  4.950e-03 	
        34.100	  4.950e-03 	
        34.119	  4.930e-03 	
        34.141	  4.970e-03 	
        34.161	  4.930e-03 	
        34.180	  4.950e-03 	
        34.200	  4.970e-03 	
        34.221	  4.950e-03 	
        34.240	  4.950e-03 	
        34.260	  4.950e-03 	
        34.280	  4.950e-03 	
        34.300	  4.930e-03 	
        34.321	  4.970e-03 	
        34.341	  4.950e-03 	
        34.359	  4.950e-03 	
        34.379	  4.930e-03 	
        34.401	  4.930e-03 	
        34.421	  4.930e-03 	
        34.441	  4.930e-03 	
        34.461	  4.950e-03 	
        34.480	  4.930e-03 	
        34.501	  4.950e-03 	
        34.520	  4.950e-03 	
        34.541	  4.930e-03 	
        34.561	  4.930e-03 	
        34.580	  4.930e-03 	
        34.600	  4.930e-03 	
        34.623	  4.950e-03 	
        34.641	  4.950e-03 	
        34.661	  4.950e-03 	
        34.680	  4.950e-03 	
        34.700	  4.930e-03 	
        34.721	  4.950e-03 	
        34.741	  4.950e-03 	
        34.761	  4.930e-03 	
        34.780	  4.950e-03 	
        34.800	  4.950e-03 	
        34.821	  4.930e-03 	
        34.841	  4.950e-03 	
        34.861	  4.950e-03 	
        34.880	  4.930e-03 	
        34.900	  4.950e-03 	
        34.921	  4.950e-03 	
        34.941	  4.930e-03 	
        34.961	  4.930e-03 	
        34.980	  4.930e-03 	
        34.999	  4.930e-03 	
        35.020	  4.930e-03 	
        35.041	  4.950e-03 	
        35.061	  4.950e-03 	
        35.080	  4.970e-03 	
        35.100	  4.950e-03 	
        35.122	  4.950e-03 	
        35.141	  4.970e-03 	
        35.161	  4.950e-03 	
        35.179	  4.950e-03 	
        35.200	  4.950e-03 	
        35.219	  4.930e-03 	
        35.241	  4.950e-03 	
        35.261	  4.950e-03 	
        35.279	  4.950e-03 	
        35.301	  4.930e-03 	
        35.320	  4.950e-03 	
        35.341	  4.950e-03 	
        35.359	  4.950e-03 	
        35.380	  4.930e-03 	
        35.399	  4.930e-03 	
        35.421	  4.930e-03 	
        35.441	  4.930e-03 	
        35.459	  4.930e-03 	
        35.480	  4.950e-03 	
        35.501	  4.930e-03 	
        35.521	  4.950e-03 	
        35.540	  4.950e-03 	
        35.561	  4.950e-03 	
        35.580	  4.950e-03 	
        35.600	  4.950e-03 	
        35.623	  4.930e-03 	
        35.641	  4.950e-03 	
        35.661	  4.930e-03 	
        35.680	  4.950e-03 	
        35.700	  4.930e-03 	
        35.721	  4.930e-03 	
        35.741	  4.950e-03 	
        35.761	  4.930e-03 	
        35.780	  4.930e-03 	
        35.800	  4.930e-03 	
        35.820	  4.930e-03 	
        35.841	  4.930e-03 	
        35.861	  4.950e-03 	
        35.880	  4.950e-03 	
        35.899	  4.930e-03 	
        35.919	  4.930e-03 	
        35.941	  4.950e-03 	
        35.961	  4.930e-03 	
        35.979	  4.950e-03 	
        35.999	  4.950e-03 	
        36.021	  4.950e-03 	
        36.041	  4.930e-03 	
        36.061	  4.930e-03 	
        36.080	  4.930e-03 	
        36.100	  4.930e-03 	
        36.122	  4.930e-03 	
        36.141	  4.950e-03 	
        36.161	  4.930e-03 	
        36.180	  4.930e-03 	
        36.200	  4.930e-03 	
        36.220	  4.930e-03 	
        36.241	  4.950e-03 	
        36.259	  4.930e-03 	
        36.280	  4.930e-03 	
        36.301	  4.950e-03 	
        36.320	  4.930e-03 	
        36.341	  4.950e-03 	
        36.361	  4.970e-03 	
        36.380	  4.930e-03 	
        36.401	  4.950e-03 	
        36.419	  4.930e-03 	
        36.440	  4.930e-03 	
        36.460	  4.930e-03 	
        36.479	  4.930e-03 	
        36.501	  4.950e-03 	
        36.520	  5.030e-03 	
        36.541	  4.930e-03 	
        36.561	  4.930e-03 	
        36.580	  4.950e-03 	
        36.599	  4.950e-03 	
        36.622	  4.930e-03 	
        36.641	  4.930e-03 	
        36.660	  4.950e-03 	
        36.680	  4.950e-03 	
        36.701	  4.930e-03 	
        36.720	  4.950e-03 	
        36.741	  4.930e-03 	
        36.760	  4.950e-03 	
        36.780	  4.950e-03 	
        36.800	  4.930e-03 	
        36.821	  4.950e-03 	
        36.841	  4.950e-03 	
        36.861	  4.950e-03 	
        36.880	  4.950e-03 	
        36.899	  4.950e-03 	
        36.921	  4.950e-03 	
        36.939	  4.930e-03 	
        36.961	  4.950e-03 	
        36.980	  4.950e-03 	
        37.000	  4.950e-03 	
        37.021	  4.930e-03 	
        37.041	  4.930e-03 	
        37.061	  4.930e-03 	
        37.080	  4.930e-03 	
        37.099	  4.950e-03 	
        37.123	  4.950e-03 	
        37.141	  4.950e-03 	
        37.161	  4.930e-03 	
        37.180	  4.930e-03 	
        37.199	  4.930e-03 	
        37.220	  4.930e-03 	
        37.240	  4.930e-03 	
        37.260	  4.950e-03 	
        37.280	  4.930e-03 	
        37.299	  4.950e-03 	
        37.320	  4.950e-03 	
        37.341	  4.950e-03 	
        37.361	  4.950e-03 	
        37.380	  4.930e-03 	
        37.400	  4.950e-03 	
        37.420	  4.950e-03 	
        37.441	  4.950e-03 	
        37.461	  4.950e-03 	
        37.480	  4.950e-03 	
        37.500	  4.950e-03 	
        37.521	  4.950e-03 	
        37.541	  4.950e-03 	
        37.561	  4.950e-03 	
        37.580	  4.930e-03 	
        37.600	  4.950e-03 	
        37.623	  4.950e-03 	
        37.639	  4.930e-03 	
        37.661	  4.950e-03 	
        37.680	  4.950e-03 	
        37.701	  4.950e-03 	
        37.721	  4.930e-03 	
        37.741	  4.950e-03 	
        37.761	  4.930e-03 	
        37.780	  4.930e-03 	
        37.800	  4.950e-03 	
        37.819	  4.950e-03 	
        37.841	  4.930e-03 	
        37.860	  4.950e-03 	
        37.880	  4.950e-03 	
        37.900	  4.950e-03 	
        37.921	  4.950e-03 	
        37.941	  4.950e-03 	
        37.961	  4.950e-03 	
        37.980	  4.950e-03 	
        38.001	  4.950e-03 	
        38.019	  4.950e-03 	
        38.041	  4.950e-03 	
        38.061	  4.950e-03 	
        38.080	  4.950e-03 	
        38.099	  4.950e-03 	
        38.123	  4.950e-03 	
        38.141	  4.970e-03 	
        38.161	  4.950e-03 	
        38.179	  4.950e-03 	
        38.201	  4.950e-03 	
        38.220	  4.950e-03 	
        38.241	  4.950e-03 	
        38.261	  4.950e-03 	
        38.280	  4.950e-03 	
        38.300	  4.950e-03 	
        38.320	  4.930e-03 	
        38.341	  4.950e-03 	
        38.360	  4.970e-03 	
        38.380	  4.930e-03 	
        38.401	  4.950e-03 	
        38.421	  4.950e-03 	
        38.441	  4.950e-03 	
        38.459	  4.950e-03 	
        38.480	  4.950e-03 	
        38.501	  4.950e-03 	
        38.519	  4.950e-03 	
        38.541	  4.950e-03 	
        38.561	  4.970e-03 	
        38.580	  4.950e-03 	
        38.600	  4.950e-03 	
        38.623	  4.950e-03 	
        38.641	  4.950e-03 	
        38.660	  4.950e-03 	
        38.680	  4.950e-03 	
        38.700	  4.950e-03 	
        38.721	  4.930e-03 	
        38.741	  4.950e-03 	
        38.761	  4.930e-03 	
        38.780	  4.950e-03 	
        38.800	  4.950e-03 	
        38.821	  4.950e-03 	
        38.841	  4.970e-03 	
        38.861	  4.950e-03 	
        38.880	  4.950e-03 	
        38.900	  4.950e-03 	
        38.921	  4.930e-03 	
        38.941	  4.950e-03 	
        38.961	  4.950e-03 	
        38.980	  4.950e-03 	
        38.999	  4.950e-03 	
        39.019	  4.950e-03 	
        39.041	  4.950e-03 	
        39.061	  4.950e-03 	
        39.080	  4.950e-03 	
        39.100	  4.950e-03 	
        39.122	  4.950e-03 	
        39.141	  4.990e-03 	
        39.161	  4.950e-03 	
        39.179	  4.950e-03 	
        39.201	  4.950e-03 	
        39.219	  4.930e-03 	
        39.241	  4.950e-03 	
        39.260	  4.950e-03 	
        39.280	  4.950e-03 	
        39.300	  4.950e-03 	
        39.320	  4.950e-03 	
        39.340	  4.950e-03 	
        39.361	  4.970e-03 	
        39.380	  4.950e-03 	
        39.401	  4.950e-03 	
        39.420	  4.950e-03 	
        39.441	  4.950e-03 	
        39.459	  4.950e-03 	
        39.480	  4.950e-03 	
        39.501	  4.950e-03 	
        39.521	  4.930e-03 	
        39.541	  4.970e-03 	
        39.561	  4.950e-03 	
        39.579	  4.950e-03 	
        39.601	  4.950e-03 	
        39.622	  4.950e-03 	
        39.641	  4.930e-03 	
        39.661	  4.930e-03 	
        39.680	  4.950e-03 	
        39.700	  4.950e-03 	
        39.720	  4.930e-03 	
        39.741	  4.930e-03 	
        39.761	  4.950e-03 	
        39.780	  4.950e-03 	
        39.799	  4.950e-03 	
        39.821	  4.930e-03 	
        39.840	  4.930e-03 	
        39.861	  4.950e-03 	
        39.880	  4.950e-03 	
        39.901	  4.930e-03 	
        39.921	  4.930e-03 	
        39.941	  4.950e-03 	
        39.961	  4.930e-03 	
        39.980	  4.930e-03 	
        40.000	  4.930e-03 	
        40.020	  4.930e-03 	
        40.041	  4.970e-03 	
        40.059	  4.950e-03 	
        40.080	  4.930e-03 	
        40.099	  4.950e-03 	
        40.123	  4.950e-03 	
        40.141	  4.950e-03 	
        40.161	  4.950e-03 	
        40.180	  4.970e-03 	
        40.201	  4.950e-03 	
        40.220	  4.930e-03 	
        40.241	  4.950e-03 	
        40.261	  4.930e-03 	
        40.280	  4.930e-03 	
        40.301	  4.930e-03 	
        40.320	  4.930e-03 	
        40.341	  4.930e-03 	
        40.361	  4.950e-03 	
        40.380	  4.930e-03 	
        40.399	  4.950e-03 	
        40.421	  4.930e-03 	
        40.441	  4.930e-03 	
        40.461	  4.950e-03 	
        40.479	  4.950e-03 	
        40.501	  4.950e-03 	
        40.520	  4.930e-03 	
        40.539	  4.950e-03 	
        40.559	  4.950e-03 	
        40.580	  4.950e-03 	
        40.601	  4.950e-03 	
        40.622	  4.930e-03 	
        40.641	  4.950e-03 	
        40.661	  4.950e-03 	
        40.680	  4.950e-03 	
        40.700	  4.950e-03 	
        40.721	  4.950e-03 	
        40.741	  4.970e-03 	
        40.760	  4.930e-03 	
        40.779	  4.950e-03 	
        40.800	  4.950e-03 	
        40.821	  4.950e-03 	
        40.841	  4.950e-03 	
        40.860	  4.930e-03 	
        40.880	  4.950e-03 	
        40.899	  4.930e-03 	
        40.921	  4.950e-03 	
        40.941	  4.950e-03 	
        40.961	  4.950e-03 	
        40.980	  4.950e-03 	
        40.999	  4.950e-03 	
        41.021	  4.930e-03 	
        41.041	  4.950e-03 	
        41.060	  4.930e-03 	
        41.080	  4.950e-03 	
        41.099	  4.950e-03 	
        41.122	  4.950e-03 	
        41.140	  4.950e-03 	
        41.161	  4.950e-03 	
        41.180	  4.950e-03 	
        41.199	  4.950e-03 	
        41.221	  4.950e-03 	
        41.239	  4.950e-03 	
        41.261	  4.930e-03 	
        41.279	  4.930e-03 	
        41.300	  4.930e-03 	
        41.321	  4.950e-03 	
        41.341	  4.950e-03 	
        41.359	  4.950e-03 	
        41.380	  4.930e-03 	
        41.401	  4.950e-03 	
        41.420	  4.930e-03 	
        41.440	  4.930e-03 	
        41.460	  4.950e-03 	
        41.480	  4.930e-03 	
        41.501	  4.950e-03 	
        41.521	  4.950e-03 	
        41.541	  4.930e-03 	
        41.559	  4.950e-03 	
        41.580	  4.910e-03 	
        41.600	  4.930e-03 	
        41.623	  4.950e-03 	
        41.640	  4.950e-03 	
        41.661	  4.950e-03 	
        41.680	  4.950e-03 	
        41.699	  4.930e-03 	
        41.721	  4.950e-03 	
        41.741	  4.930e-03 	
        41.761	  4.950e-03 	
        41.780	  4.950e-03 	
        41.799	  4.930e-03 	
        41.821	  4.950e-03 	
        41.841	  4.930e-03 	
        41.860	  4.930e-03 	
        41.880	  4.930e-03 	
        41.901	  4.930e-03 	
        41.921	  4.930e-03 	
        41.940	  4.930e-03 	
        41.960	  4.950e-03 	
        41.980	  4.930e-03 	
        41.999	  4.930e-03 	
        42.020	  4.950e-03 	
        42.041	  4.930e-03 	
        42.061	  4.950e-03 	
        42.080	  4.930e-03 	
        42.100	  4.950e-03 	
        42.121	  4.930e-03 	
        42.141	  4.930e-03 	
        42.161	  4.970e-03 	
        42.180	  4.930e-03 	
        42.201	  4.910e-03 	
        42.220	  4.930e-03 	
        42.241	  4.950e-03 	
        42.261	  4.950e-03 	
        42.280	  4.930e-03 	
        42.301	  4.950e-03 	
        42.321	  4.950e-03 	
        42.339	  4.950e-03 	
        42.361	  4.950e-03 	
        42.380	  4.950e-03 	
        42.401	  4.950e-03 	
        42.421	  4.930e-03 	
        42.440	  4.950e-03 	
        42.461	  4.950e-03 	
        42.479	  4.930e-03 	
        42.500	  4.930e-03 	
        42.521	  4.930e-03 	
        42.541	  4.930e-03 	
        42.559	  4.930e-03 	
        42.579	  4.930e-03 	
        42.600	  4.930e-03 	
        42.621	  4.930e-03 	
        42.641	  4.950e-03 	
        42.661	  4.930e-03 	
        42.680	  4.950e-03 	
        42.700	  4.930e-03 	
        42.721	  4.930e-03 	
        42.741	  4.950e-03 	
        42.761	  4.930e-03 	
        42.780	  4.930e-03 	
        42.801	  4.950e-03 	
        42.821	  4.910e-03 	
        42.840	  4.930e-03 	
        42.861	  4.950e-03 	
        42.880	  4.950e-03 	
        42.900	  4.950e-03 	
        42.921	  4.930e-03 	
        42.941	  4.950e-03 	
        42.961	  4.930e-03 	
        42.980	  4.930e-03 	
        43.000	  4.930e-03 	
        43.021	  4.930e-03 	
        43.041	  4.950e-03 	
        43.061	  4.930e-03 	
        43.080	  4.930e-03 	
        43.099	  4.930e-03 	
        43.120	  4.930e-03 	
        43.141	  4.950e-03 	
        43.161	  4.970e-03 	
        43.179	  4.930e-03 	
        43.199	  4.950e-03 	
        43.221	  4.950e-03 	
        43.241	  4.930e-03 	
        43.261	  4.950e-03 	
        43.279	  4.930e-03 	
        43.301	  4.950e-03 	
        43.320	  4.930e-03 	
        43.340	  4.930e-03 	
        43.360	  4.930e-03 	
        43.380	  4.950e-03 	
        43.400	  4.930e-03 	
        43.420	  4.930e-03 	
        43.439	  4.950e-03 	
        43.460	  4.950e-03 	
        43.479	  4.950e-03 	
        43.501	  4.950e-03 	
        43.521	  4.930e-03 	
        43.539	  4.930e-03 	
        43.559	  4.950e-03 	
        43.580	  4.950e-03 	
        43.600	  4.950e-03 	
        43.620	  4.950e-03 	
        43.641	  4.930e-03 	
        43.661	  4.930e-03 	
        43.680	  4.930e-03 	
        43.701	  4.950e-03 	
        43.721	  4.950e-03 	
        43.741	  4.930e-03 	
        43.759	  4.930e-03 	
        43.779	  4.930e-03 	
        43.800	  4.930e-03 	
        43.821	  4.950e-03 	
        43.840	  4.930e-03 	
        43.861	  4.930e-03 	
        43.879	  4.930e-03 	
        43.899	  4.930e-03 	
        43.921	  4.950e-03 	
        43.941	  4.930e-03 	
        43.961	  4.930e-03 	
        43.980	  4.950e-03 	
        44.000	  4.950e-03 	
        44.021	  4.950e-03 	
        44.041	  4.950e-03 	
        44.061	  4.950e-03 	
        44.080	  4.930e-03 	
        44.100	  4.950e-03 	
        44.120	  4.950e-03 	
        44.140	  4.930e-03 	
        44.161	  4.970e-03 	
        44.180	  4.950e-03 	
        44.199	  4.950e-03 	
        44.221	  4.930e-03 	
        44.241	  4.930e-03 	
        44.261	  4.930e-03 	
        44.279	  4.950e-03 	
        44.300	  4.930e-03 	
        44.321	  4.930e-03 	
        44.341	  4.930e-03 	
        44.361	  4.930e-03 	
        44.380	  4.950e-03 	
        44.399	  4.930e-03 	
        44.420	  4.930e-03 	
        44.441	  4.930e-03 	
        44.461	  4.950e-03 	
        44.480	  4.930e-03 	
        44.501	  4.930e-03 	
        44.520	  4.950e-03 	
        44.541	  4.930e-03 	
        44.560	  4.950e-03 	
        44.580	  4.930e-03 	
        44.599	  4.930e-03 	
        44.619	  4.930e-03 	
        44.641	  4.930e-03 	
        44.660	  4.930e-03 	
        44.680	  4.930e-03 	
        44.701	  4.950e-03 	
        44.721	  4.930e-03 	
        44.739	  4.930e-03 	
        44.761	  4.930e-03 	
        44.780	  4.930e-03 	
        44.800	  4.930e-03 	
        44.821	  4.950e-03 	
        44.841	  4.950e-03 	
        44.859	  4.930e-03 	
        44.879	  4.950e-03 	
        44.901	  4.950e-03 	
        44.921	  4.930e-03 	
        44.941	  4.930e-03 	
        44.961	  4.950e-03 	
        44.979	  4.930e-03 	
        45.000	  4.950e-03 	
        45.020	  4.950e-03 	
        45.041	  4.950e-03 	
        45.060	  4.930e-03 	
        45.080	  4.930e-03 	
        45.100	  4.950e-03 	
        45.121	  4.930e-03 	
        45.141	  4.930e-03 	
        45.161	  4.970e-03 	
        45.180	  4.950e-03 	
        45.200	  4.950e-03 	
        45.221	  4.930e-03 	
        45.241	  4.930e-03 	
        45.261	  4.930e-03 	
        45.280	  4.930e-03 	
        45.299	  4.930e-03 	
        45.321	  4.950e-03 	
        45.341	  4.950e-03 	
        45.361	  4.930e-03 	
        45.380	  4.930e-03 	
        45.399	  4.930e-03 	
        45.419	  4.930e-03 	
        45.441	  4.930e-03 	
        45.461	  4.930e-03 	
        45.479	  4.950e-03 	
        45.499	  4.930e-03 	
        45.520	  4.930e-03 	
        45.540	  4.930e-03 	
        45.561	  4.930e-03 	
        45.579	  4.930e-03 	
        45.600	  4.950e-03 	
        45.620	  4.930e-03 	
        45.641	  4.910e-03 	
        45.661	  4.930e-03 	
        45.679	  4.930e-03 	
        45.701	  4.930e-03 	
        45.721	  4.930e-03 	
        45.741	  4.930e-03 	
        45.761	  4.930e-03 	
        45.780	  4.930e-03 	
        45.800	  4.950e-03 	
        45.821	  4.930e-03 	
        45.839	  4.930e-03 	
        45.861	  4.950e-03 	
        45.879	  4.950e-03 	
        45.901	  4.930e-03 	
        45.920	  4.950e-03 	
        45.941	  4.930e-03 	
        45.961	  4.930e-03 	
        45.979	  4.950e-03 	
        45.999	  4.950e-03 	
        46.021	  4.950e-03 	
        46.041	  4.950e-03 	
        46.060	  4.950e-03 	
        46.079	  4.950e-03 	
        46.100	  4.950e-03 	
        46.121	  4.950e-03 	
        46.141	  4.950e-03 	
        46.159	  4.950e-03 	
        46.179	  4.950e-03 	
        46.201	  4.950e-03 	
        46.221	  4.930e-03 	
        46.241	  4.950e-03 	
        46.261	  4.950e-03 	
        46.280	  4.930e-03 	
        46.300	  4.930e-03 	
        46.321	  4.930e-03 	
        46.339	  4.950e-03 	
        46.361	  4.930e-03 	
        46.379	  4.930e-03 	
        46.400	  4.930e-03 	
        46.421	  4.910e-03 	
        46.441	  4.930e-03 	
        46.461	  4.930e-03 	
        46.479	  4.950e-03 	
        46.499	  4.930e-03 	
        46.521	  4.930e-03 	
        46.541	  4.950e-03 	
        46.561	  4.950e-03 	
        46.580	  4.930e-03 	
        46.600	  4.930e-03 	
        46.621	  4.930e-03 	
        46.641	  4.950e-03 	
        46.661	  4.930e-03 	
        46.680	  4.950e-03 	
        46.701	  4.970e-03 	
        46.721	  4.930e-03 	
        46.741	  4.930e-03 	
        46.761	  4.950e-03 	
        46.779	  4.950e-03 	
        46.800	  4.950e-03 	
        46.821	  4.950e-03 	
        46.841	  4.930e-03 	
        46.861	  4.930e-03 	
        46.879	  4.910e-03 	
        46.901	  4.930e-03 	
        46.920	  4.930e-03 	
        46.940	  4.950e-03 	
        46.960	  4.930e-03 	
        46.980	  4.930e-03 	
        47.001	  4.930e-03 	
        47.019	  4.950e-03 	
        47.041	  4.950e-03 	
        47.061	  4.970e-03 	
        47.080	  4.950e-03 	
        47.099	  4.950e-03 	
        47.121	  4.930e-03 	
        47.139	  4.930e-03 	
        47.161	  4.970e-03 	
        47.179	  4.970e-03 	
        47.201	  4.950e-03 	
        47.221	  4.950e-03 	
        47.241	  4.950e-03 	
        47.259	  4.950e-03 	
        47.279	  4.950e-03 	
        47.301	  4.950e-03 	
        47.321	  4.950e-03 	
        47.341	  4.950e-03 	
        47.361	  4.950e-03 	
        47.380	  4.950e-03 	
        47.400	  4.950e-03 	
        47.421	  4.950e-03 	
        47.440	  4.930e-03 	
        47.461	  4.930e-03 	
        47.480	  4.930e-03 	
        47.500	  4.930e-03 	
        47.521	  4.930e-03 	
        47.541	  4.950e-03 	
        47.561	  4.930e-03 	
        47.579	  4.990e-03 	
        47.599	  4.950e-03 	
        47.621	  4.930e-03 	
        47.641	  4.950e-03 	
        47.660	  4.950e-03 	
        47.679	  4.930e-03 	
        47.701	  4.950e-03 	
        47.720	  4.970e-03 	
        47.741	  4.930e-03 	
        47.761	  4.950e-03 	
        47.780	  4.930e-03 	
        47.799	  4.950e-03 	
        47.820	  4.930e-03 	
        47.841	  4.950e-03 	
        47.860	  4.930e-03 	
        47.879	  4.950e-03 	
        47.901	  4.930e-03 	
        47.920	  4.950e-03 	
        47.940	  4.950e-03 	
        47.961	  4.950e-03 	
        47.980	  4.950e-03 	
        48.001	  4.930e-03 	
        48.020	  4.930e-03 	
        48.041	  4.950e-03 	
        48.061	  4.950e-03 	
        48.079	  4.950e-03 	
        48.100	  4.950e-03 	
        48.121	  4.930e-03 	
        48.139	  4.930e-03 	
        48.161	  4.970e-03 	
        48.179	  4.950e-03 	
        48.200	  4.970e-03 	
        48.220	  4.970e-03 	
        48.239	  4.950e-03 	
        48.260	  4.930e-03 	
        48.279	  4.950e-03 	
        48.301	  4.950e-03 	
        48.321	  4.950e-03 	
        48.341	  4.950e-03 	
        48.359	  4.930e-03 	
        48.379	  4.950e-03 	
        48.399	  4.950e-03 	
        48.421	  4.930e-03 	
        48.441	  4.950e-03 	
        48.461	  4.930e-03 	
        48.480	  4.950e-03 	
        48.501	  4.950e-03 	
        48.521	  4.950e-03 	
        48.541	  4.970e-03 	
        48.561	  4.950e-03 	
        48.580	  4.930e-03 	
        48.600	  4.950e-03 	
        48.620	  4.950e-03 	
        48.641	  4.950e-03 	
        48.660	  4.950e-03 	
        48.679	  4.950e-03 	
        48.699	  4.970e-03 	
        48.720	  4.970e-03 	
        48.740	  4.950e-03 	
        48.761	  4.970e-03 	
        48.780	  4.950e-03 	
        48.800	  4.950e-03 	
        48.821	  4.950e-03 	
        48.841	  4.950e-03 	
        48.861	  4.950e-03 	
        48.880	  4.950e-03 	
        48.900	  4.950e-03 	
        48.921	  4.950e-03 	
        48.941	  4.950e-03 	
        48.960	  4.950e-03 	
        48.980	  4.950e-03 	
        48.999	  4.950e-03 	
        49.020	  4.950e-03 	
        49.041	  4.950e-03 	
        49.061	  4.950e-03 	
        49.079	  4.950e-03 	
        49.099	  4.970e-03 	
        49.120	  4.950e-03 	
        49.141	  4.950e-03 	
        49.160	  4.970e-03 	
        49.179	  4.950e-03 	
        49.201	  4.950e-03 	
        49.220	  4.950e-03 	
        49.240	  4.950e-03 	
        49.261	  4.950e-03 	
        49.279	  4.930e-03 	
        49.300	  4.950e-03 	
        49.321	  4.950e-03 	
        49.339	  4.930e-03 	
        49.361	  4.950e-03 	
        49.379	  4.970e-03 	
        49.399	  4.950e-03 	
        49.419	  4.950e-03 	
        49.440	  4.930e-03 	
        49.460	  4.950e-03 	
        49.480	  4.950e-03 	
        49.501	  4.950e-03 	
        49.521	  4.970e-03 	
        49.541	  4.950e-03 	
        49.559	  4.950e-03 	
        49.579	  4.950e-03 	
        49.601	  4.950e-03 	
        49.621	  4.950e-03 	
        49.641	  4.950e-03 	
        49.661	  4.950e-03 	
        49.680	  4.970e-03 	
        49.700	  4.950e-03 	
        49.721	  4.950e-03 	
        49.741	  4.950e-03 	
        49.760	  4.950e-03 	
        49.779	  4.930e-03 	
        49.800	  4.970e-03 	
        49.821	  4.970e-03 	
        49.841	  4.970e-03 	
        49.861	  4.930e-03 	
        49.879	  4.930e-03 	
        49.899	  4.950e-03 	
        49.920	  4.950e-03 	
        49.941	  4.950e-03 	
        49.961	  4.950e-03 	
        49.980	  4.950e-03 	
        50.001	  4.950e-03 	
        50.021	  4.950e-03 	
        50.040	  4.950e-03 	
        50.061	  4.950e-03 	
        50.079	  4.950e-03 	
        50.099	  4.950e-03 	
        50.119	  4.950e-03 	
        50.141	  4.950e-03 	
        50.160	  4.970e-03 	
        50.180	  4.950e-03 	
        50.199	  4.950e-03 	
        50.221	  4.950e-03 	
        50.241	  4.970e-03 	
        50.261	  4.950e-03 	
        50.279	  4.950e-03 	
        50.301	  4.950e-03 	
        50.320	  4.950e-03 	
        50.341	  4.950e-03 	
        50.361	  4.970e-03 	
        50.379	  4.970e-03 	
        50.401	  4.950e-03 	
        50.420	  4.950e-03 	
        50.440	  4.950e-03 	
        50.461	  4.950e-03 	
        50.479	  4.950e-03 	
        50.501	  4.970e-03 	
        50.521	  4.970e-03 	
        50.539	  4.930e-03 	
        50.561	  4.950e-03 	
        50.579	  4.970e-03 	
        50.600	  4.950e-03 	
        50.621	  4.950e-03 	
        50.641	  4.970e-03 	
        50.659	  4.970e-03 	
        50.680	  4.950e-03 	
        50.701	  4.950e-03 	
        50.721	  4.970e-03 	
        50.741	  4.950e-03 	
        50.759	  4.950e-03 	
        50.779	  4.950e-03 	
        50.799	  4.950e-03 	
        50.820	  4.950e-03 	
        50.841	  4.950e-03 	
        50.861	  4.950e-03 	
        50.879	  4.950e-03 	
        50.900	  4.970e-03 	
        50.921	  4.970e-03 	
        50.941	  4.970e-03 	
        50.961	  4.950e-03 	
        50.980	  4.950e-03 	
        51.001	  4.950e-03 	
        51.021	  4.950e-03 	
        51.041	  4.950e-03 	
        51.061	  4.950e-03 	
        51.079	  4.950e-03 	
        51.099	  4.950e-03 	
        51.121	  4.950e-03 	
        51.141	  4.950e-03 	
        51.161	  4.970e-03 	
        51.180	  4.950e-03 	
        51.201	  4.970e-03 	
        51.221	  4.950e-03 	
        51.241	  4.950e-03 	
        51.261	  4.950e-03 	
        51.279	  4.970e-03 	
        51.299	  4.950e-03 	
        51.320	  4.930e-03 	
        51.341	  4.950e-03 	
        51.361	  4.930e-03 	
        51.379	  4.950e-03 	
        51.401	  4.950e-03 	
        51.420	  4.950e-03 	
        51.441	  5.050e-03 	
        51.461	  4.950e-03 	
        51.479	  4.950e-03 	
        51.499	  4.950e-03 	
        51.521	  4.950e-03 	
        51.540	  4.950e-03 	
        51.561	  4.930e-03 	
        51.579	  4.950e-03 	
        51.600	  4.950e-03 	
        51.621	  4.950e-03 	
        51.640	  4.950e-03 	
        51.661	  4.950e-03 	
        51.679	  4.950e-03 	
        51.701	  4.970e-03 	
        51.721	  4.950e-03 	
        51.740	  4.950e-03 	
        51.760	  4.950e-03 	
        51.779	  4.970e-03 	
        51.799	  4.950e-03 	
        51.821	  4.930e-03 	
        51.841	  4.950e-03 	
        51.860	  4.950e-03 	
        51.880	  4.950e-03 	
        51.901	  4.950e-03 	
        51.921	  4.950e-03 	
        51.941	  4.950e-03 	
        51.959	  4.930e-03 	
        51.980	  4.950e-03 	
        52.001	  4.950e-03 	
        52.021	  4.950e-03 	
        52.041	  4.950e-03 	
        52.061	  4.930e-03 	
        52.080	  4.950e-03 	
        52.100	  4.950e-03 	
        52.121	  4.930e-03 	
        52.140	  4.950e-03 	
        52.161	  4.990e-03 	
        52.180	  4.950e-03 	
        52.200	  4.950e-03 	
        52.221	  4.950e-03 	
        52.241	  4.950e-03 	
        52.261	  4.930e-03 	
        52.280	  4.950e-03 	
        52.300	  4.950e-03 	
        52.321	  4.950e-03 	
        52.341	  4.950e-03 	
        52.361	  4.950e-03 	
        52.379	  4.950e-03 	
        52.399	  4.930e-03 	
        52.419	  4.930e-03 	
        52.440	  4.950e-03 	
        52.461	  4.950e-03 	
        52.479	  4.950e-03 	
        52.499	  4.950e-03 	
        52.519	  4.950e-03 	
        52.539	  4.930e-03 	
        52.561	  4.950e-03 	
        52.580	  4.930e-03 	
        52.600	  4.950e-03 	
        52.621	  4.930e-03 	
        52.641	  4.950e-03 	
        52.661	  4.930e-03 	
        52.679	  4.950e-03 	
        52.701	  4.950e-03 	
        52.720	  4.930e-03 	
        52.741	  4.950e-03 	
        52.761	  4.930e-03 	
        52.780	  4.930e-03 	
        52.800	  4.930e-03 	
        52.820	  4.950e-03 	
        52.841	  4.930e-03 	
        52.861	  4.930e-03 	
        52.879	  4.950e-03 	
        52.900	  4.930e-03 	
        52.921	  4.930e-03 	
        52.941	  4.950e-03 	
        52.961	  4.910e-03 	
        52.979	  4.950e-03 	
        53.000	  4.930e-03 	
        53.019	  4.950e-03 	
        53.041	  4.950e-03 	
        53.059	  4.950e-03 	
        53.079	  4.930e-03 	
        53.100	  4.950e-03 	
        53.121	  4.930e-03 	
        53.141	  4.930e-03 	
        53.159	  4.970e-03 	
        53.179	  4.950e-03 	
        53.201	  4.950e-03 	
        53.219	  4.970e-03 	
        53.241	  4.970e-03 	
        53.261	  4.950e-03 	
        53.279	  4.950e-03 	
        53.300	  4.950e-03 	
        53.321	  4.950e-03 	
        53.341	  4.950e-03 	
        53.361	  4.950e-03 	
        53.380	  4.950e-03 	
        53.401	  4.950e-03 	
        53.420	  4.950e-03 	
        53.440	  4.950e-03 	
        53.461	  4.930e-03 	
        53.479	  4.950e-03 	
        53.499	  4.950e-03 	
        53.521	  4.950e-03 	
   	
