;PC Software:StarLab Version 3.72 Build 3
! ******* Warning: Do not modify this file. Changes may prevent   ********
! ******* the StarLab Log reader from opening the file correctly. ********
;Logged:04/08/2022 at 17:21:45
;File Version:5
;Time Resolution:1 microseconds
;Graph Mode:Merge
;Graph Type:Line
;Notes:                                                            

;Channel A:Vega Pyroelectric PE9 (s/n:574745)  VG2.54 (s/n:547613)

;Channel A:Details
;Name:PE9
;Graph Color:RGB(14,104,168)
;Units:J
;Settings:Measuring:Energy
;Settings:Wavelength:206
;Settings:Range:200uJ
;Settings:Diffuser:N/A
;Settings:Pulse Width:30uS
;Settings:Threshold:N/A

;Channel A:Statistics
;Min:7.600uJ             
;Max:14.30uJ             
;Average:11.19uJ             
;Std.Dev.:1.197uJ             
;Overrange:0                   
;Total Pulses:2050                
;--------------------


;First Pulse Arrived : 04/08/2022 at 17:23:18
  Timestamp   	  Channel A  	
         0.000	  1.020e-05 	
         0.019	  1.200e-05 	
         0.038	  1.180e-05 	
         0.060	  1.110e-05 	
         0.078	  1.010e-05 	
         0.099	  9.600e-06 	
         0.118	  9.400e-06 	
         0.139	  1.000e-05 	
         0.159	  9.400e-06 	
         0.177	  9.100e-06 	
         0.199	  9.800e-06 	
         0.218	  8.500e-06 	
         0.237	  8.700e-06 	
         0.259	  8.800e-06 	
         0.279	  8.400e-06 	
         0.300	  8.200e-06 	
         0.319	  8.500e-06 	
         0.339	  8.400e-06 	
         0.360	  1.080e-05 	
         0.379	  9.000e-06 	
         0.399	  9.800e-06 	
         0.421	  9.600e-06 	
         0.439	  9.000e-06 	
         0.460	  8.600e-06 	
         0.479	  8.500e-06 	
         0.500	  9.700e-06 	
         0.519	  1.060e-05 	
         0.538	  9.100e-06 	
         0.560	  9.000e-06 	
         0.578	  9.300e-06 	
         0.599	  9.500e-06 	
         0.619	  9.400e-06 	
         0.639	  1.040e-05 	
         0.660	  1.200e-05 	
         0.678	  1.010e-05 	
         0.700	  1.180e-05 	
         0.719	  9.800e-06 	
         0.739	  1.140e-05 	
         0.760	  1.310e-05 	
         0.778	  1.020e-05 	
         0.800	  1.140e-05 	
         0.818	  1.270e-05 	
         0.839	  1.220e-05 	
         0.860	  1.310e-05 	
         0.879	  1.200e-05 	
         0.901	  1.260e-05 	
         0.919	  1.230e-05 	
         0.939	  1.250e-05 	
         0.960	  1.240e-05 	
         0.979	  1.220e-05 	
         2.260	  1.170e-05 	
         2.277	  1.000e-05 	
         2.298	  9.000e-06 	
         2.319	  1.190e-05 	
         2.338	  1.210e-05 	
         2.359	  1.200e-05 	
         2.378	  1.140e-05 	
         2.397	  1.310e-05 	
         2.421	  1.220e-05 	
         2.438	  1.020e-05 	
         2.460	  9.800e-06 	
         2.478	  8.900e-06 	
         2.498	  1.160e-05 	
         2.518	  1.270e-05 	
         2.538	  1.000e-05 	
         2.561	  1.160e-05 	
         2.582	  1.200e-05 	
         2.599	  1.080e-05 	
         2.618	  1.090e-05 	
         2.638	  1.160e-05 	
         2.661	  1.010e-05 	
         2.678	  1.130e-05 	
         2.698	  1.040e-05 	
         2.719	  1.220e-05 	
         2.737	  1.050e-05 	
         2.761	  1.020e-05 	
         2.779	  1.140e-05 	
         2.799	  1.150e-05 	
         2.819	  1.100e-05 	
         2.838	  1.140e-05 	
         2.861	  1.120e-05 	
         2.878	  1.110e-05 	
         2.898	  9.400e-06 	
         2.921	  1.120e-05 	
         2.938	  1.110e-05 	
         2.960	  1.020e-05 	
         2.978	  1.140e-05 	
         2.999	  1.100e-05 	
         3.018	  9.900e-06 	
         3.037	  9.100e-06 	
         3.060	  9.200e-06 	
         3.079	  1.110e-05 	
         3.098	  9.900e-06 	
         3.118	  9.300e-06 	
         3.138	  9.900e-06 	
         3.160	  9.500e-06 	
         3.178	  9.300e-06 	
         3.198	  8.900e-06 	
         3.218	  8.100e-06 	
         3.238	  1.040e-05 	
         4.502	  1.060e-05 	
         4.518	  1.140e-05 	
         4.539	  1.190e-05 	
         4.560	  1.330e-05 	
         4.578	  1.290e-05 	
         4.601	  1.420e-05 	
         4.619	  1.190e-05 	
         4.638	  1.400e-05 	
         4.660	  1.250e-05 	
         4.677	  1.270e-05 	
         4.700	  1.230e-05 	
         4.719	  9.800e-06 	
         4.739	  1.210e-05 	
         4.761	  1.120e-05 	
         4.777	  1.070e-05 	
         4.801	  1.090e-05 	
         4.817	  9.800e-06 	
         4.838	  9.400e-06 	
         4.863	  9.700e-06 	
         4.877	  1.030e-05 	
         4.900	  1.110e-05 	
         4.918	  1.250e-05 	
         4.938	  1.050e-05 	
         4.960	  1.150e-05 	
         4.978	  1.120e-05 	
         5.000	  1.270e-05 	
         5.018	  1.160e-05 	
         5.038	  1.000e-05 	
         5.060	  1.050e-05 	
         5.077	  1.240e-05 	
         5.100	  1.050e-05 	
         5.118	  1.200e-05 	
         5.138	  1.010e-05 	
         5.160	  1.000e-05 	
         5.178	  1.140e-05 	
         5.200	  9.800e-06 	
         5.218	  9.300e-06 	
         5.238	  1.030e-05 	
         5.261	  1.170e-05 	
         5.278	  1.120e-05 	
         5.300	  1.080e-05 	
         5.318	  1.260e-05 	
         5.338	  1.080e-05 	
         5.360	  9.900e-06 	
         5.378	  1.200e-05 	
         5.401	  1.260e-05 	
         5.418	  1.340e-05 	
         5.438	  1.310e-05 	
         5.460	  1.270e-05 	
         5.478	  1.220e-05 	
         6.763	  1.370e-05 	
         6.778	  1.070e-05 	
         6.799	  1.150e-05 	
         6.819	  1.160e-05 	
         6.839	  1.160e-05 	
         6.860	  1.070e-05 	
         6.878	  1.070e-05 	
         6.899	  1.200e-05 	
         6.919	  1.210e-05 	
         6.939	  1.220e-05 	
         6.960	  1.100e-05 	
         6.978	  1.290e-05 	
         6.998	  1.380e-05 	
         7.019	  1.200e-05 	
         7.039	  1.150e-05 	
         7.060	  1.230e-05 	
         7.077	  1.120e-05 	
         7.099	  9.600e-06 	
         7.121	  9.100e-06 	
         7.139	  1.140e-05 	
         7.160	  1.210e-05 	
         7.178	  1.020e-05 	
         7.199	  1.000e-05 	
         7.219	  9.800e-06 	
         7.238	  1.070e-05 	
         7.260	  1.070e-05 	
         7.278	  1.170e-05 	
         7.298	  9.800e-06 	
         7.319	  1.140e-05 	
         7.338	  1.140e-05 	
         7.360	  1.140e-05 	
         7.378	  1.090e-05 	
         7.399	  1.180e-05 	
         7.418	  1.220e-05 	
         7.438	  1.240e-05 	
         7.460	  1.250e-05 	
         7.478	  1.260e-05 	
         7.499	  1.300e-05 	
         7.519	  1.360e-05 	
         7.539	  1.090e-05 	
         7.560	  1.320e-05 	
         7.578	  1.070e-05 	
         7.599	  9.700e-06 	
         7.619	  8.900e-06 	
         7.638	  1.200e-05 	
         7.658	  1.000e-05 	
         7.678	  1.050e-05 	
         7.698	  1.190e-05 	
         7.719	  9.600e-06 	
         7.738	  1.050e-05 	
         9.001	  9.900e-06 	
         9.018	  1.070e-05 	
         9.039	  1.240e-05 	
         9.058	  1.040e-05 	
         9.079	  1.050e-05 	
         9.101	  1.090e-05 	
         9.118	  1.020e-05 	
         9.139	  1.070e-05 	
         9.158	  1.090e-05 	
         9.179	  1.340e-05 	
         9.200	  1.160e-05 	
         9.218	  1.050e-05 	
         9.238	  1.120e-05 	
         9.258	  1.230e-05 	
         9.279	  1.180e-05 	
         9.299	  1.110e-05 	
         9.318	  1.300e-05 	
         9.339	  1.320e-05 	
         9.357	  9.900e-06 	
         9.381	  1.240e-05 	
         9.398	  1.140e-05 	
         9.418	  1.140e-05 	
         9.438	  1.030e-05 	
         9.458	  1.220e-05 	
         9.478	  1.140e-05 	
         9.500	  1.060e-05 	
         9.518	  9.200e-06 	
         9.539	  1.000e-05 	
         9.558	  1.230e-05 	
         9.579	  1.060e-05 	
         9.600	  1.200e-05 	
         9.618	  1.150e-05 	
         9.638	  1.080e-05 	
         9.658	  1.230e-05 	
         9.679	  1.110e-05 	
         9.698	  1.220e-05 	
         9.718	  1.230e-05 	
         9.739	  1.100e-05 	
         9.758	  1.050e-05 	
         9.779	  1.250e-05 	
         9.799	  1.090e-05 	
         9.818	  1.160e-05 	
         9.838	  1.170e-05 	
         9.858	  1.040e-05 	
         9.879	  1.180e-05 	
         9.899	  9.300e-06 	
         9.918	  1.020e-05 	
         9.937	  1.090e-05 	
         9.958	  1.080e-05 	
         9.978	  1.230e-05 	
        11.239	  1.040e-05 	
        11.258	  9.900e-06 	
        11.279	  1.200e-05 	
        11.299	  1.050e-05 	
        11.318	  9.800e-06 	
        11.338	  1.140e-05 	
        11.357	  1.170e-05 	
        11.379	  1.180e-05 	
        11.398	  1.250e-05 	
        11.418	  1.210e-05 	
        11.439	  1.350e-05 	
        11.458	  1.240e-05 	
        11.478	  1.220e-05 	
        11.497	  9.300e-06 	
        11.518	  9.300e-06 	
        11.538	  8.500e-06 	
        11.557	  1.020e-05 	
        11.579	  1.160e-05 	
        11.598	  1.160e-05 	
        11.617	  1.180e-05 	
        11.639	  1.180e-05 	
        11.662	  9.400e-06 	
        11.678	  9.300e-06 	
        11.698	  1.040e-05 	
        11.718	  1.120e-05 	
        11.739	  1.050e-05 	
        11.758	  1.090e-05 	
        11.777	  1.140e-05 	
        11.799	  9.600e-06 	
        11.818	  1.180e-05 	
        11.838	  1.140e-05 	
        11.858	  1.070e-05 	
        11.879	  9.300e-06 	
        11.899	  1.220e-05 	
        11.918	  1.200e-05 	
        11.938	  9.500e-06 	
        11.957	  1.140e-05 	
        11.978	  1.160e-05 	
        11.998	  1.180e-05 	
        12.018	  1.210e-05 	
        12.037	  9.800e-06 	
        12.058	  9.400e-06 	
        12.078	  8.900e-06 	
        12.097	  1.080e-05 	
        12.118	  1.190e-05 	
        12.138	  1.010e-05 	
        12.160	  9.600e-06 	
        12.178	  1.030e-05 	
        12.199	  9.800e-06 	
        12.218	  8.800e-06 	
        13.482	  9.900e-06 	
        13.499	  1.200e-05 	
        13.518	  1.120e-05 	
        13.538	  1.280e-05 	
        13.557	  1.160e-05 	
        13.578	  1.120e-05 	
        13.599	  1.090e-05 	
        13.619	  1.130e-05 	
        13.638	  1.140e-05 	
        13.657	  1.290e-05 	
        13.679	  1.060e-05 	
        13.698	  1.270e-05 	
        13.718	  1.190e-05 	
        13.739	  1.330e-05 	
        13.758	  1.270e-05 	
        13.778	  1.250e-05 	
        13.799	  1.250e-05 	
        13.819	  1.200e-05 	
        13.838	  1.270e-05 	
        13.858	  1.250e-05 	
        13.879	  1.000e-05 	
        13.899	  1.140e-05 	
        13.921	  1.230e-05 	
        13.939	  1.090e-05 	
        13.958	  1.080e-05 	
        13.978	  9.600e-06 	
        14.001	  1.000e-05 	
        14.019	  1.190e-05 	
        14.039	  1.260e-05 	
        14.058	  1.250e-05 	
        14.078	  1.110e-05 	
        14.098	  1.170e-05 	
        14.118	  1.120e-05 	
        14.138	  1.200e-05 	
        14.158	  1.180e-05 	
        14.179	  1.200e-05 	
        14.198	  1.200e-05 	
        14.219	  1.180e-05 	
        14.239	  1.230e-05 	
        14.258	  1.290e-05 	
        14.278	  1.240e-05 	
        14.299	  1.120e-05 	
        14.319	  1.070e-05 	
        14.339	  8.700e-06 	
        14.357	  1.010e-05 	
        14.379	  1.020e-05 	
        14.399	  1.110e-05 	
        14.418	  9.400e-06 	
        14.439	  1.210e-05 	
        14.457	  1.160e-05 	
        15.721	  1.190e-05 	
        15.738	  1.100e-05 	
        15.758	  1.090e-05 	
        15.779	  9.700e-06 	
        15.798	  1.120e-05 	
        15.819	  1.160e-05 	
        15.838	  1.190e-05 	
        15.858	  1.120e-05 	
        15.879	  1.130e-05 	
        15.898	  1.140e-05 	
        15.919	  1.270e-05 	
        15.939	  1.180e-05 	
        15.958	  1.190e-05 	
        15.978	  1.180e-05 	
        16.000	  9.400e-06 	
        16.019	  9.100e-06 	
        16.039	  9.300e-06 	
        16.058	  1.090e-05 	
        16.079	  9.800e-06 	
        16.098	  9.600e-06 	
        16.118	  1.110e-05 	
        16.139	  1.160e-05 	
        16.158	  1.120e-05 	
        16.180	  1.030e-05 	
        16.197	  1.160e-05 	
        16.219	  1.160e-05 	
        16.239	  1.180e-05 	
        16.258	  1.120e-05 	
        16.278	  1.050e-05 	
        16.298	  1.030e-05 	
        16.318	  1.120e-05 	
        16.339	  1.060e-05 	
        16.358	  1.030e-05 	
        16.378	  1.120e-05 	
        16.398	  1.090e-05 	
        16.419	  1.150e-05 	
        16.439	  1.180e-05 	
        16.458	  1.110e-05 	
        16.478	  1.170e-05 	
        16.497	  1.110e-05 	
        16.519	  1.140e-05 	
        16.539	  1.190e-05 	
        16.558	  1.200e-05 	
        16.577	  1.050e-05 	
        16.597	  1.130e-05 	
        16.618	  1.160e-05 	
        16.637	  1.310e-05 	
        16.658	  1.170e-05 	
        16.679	  1.230e-05 	
        16.698	  1.070e-05 	
        17.981	  1.050e-05 	
        18.001	  8.900e-06 	
        18.019	  8.600e-06 	
        18.038	  1.030e-05 	
        18.058	  1.250e-05 	
        18.079	  1.280e-05 	
        18.098	  1.040e-05 	
        18.118	  1.030e-05 	
        18.138	  9.300e-06 	
        18.158	  1.240e-05 	
        18.178	  1.140e-05 	
        18.198	  1.110e-05 	
        18.219	  1.230e-05 	
        18.238	  1.250e-05 	
        18.258	  1.200e-05 	
        18.278	  1.110e-05 	
        18.297	  9.300e-06 	
        18.318	  1.120e-05 	
        18.337	  1.040e-05 	
        18.358	  1.160e-05 	
        18.379	  1.000e-05 	
        18.397	  1.060e-05 	
        18.419	  9.600e-06 	
        18.438	  1.110e-05 	
        18.460	  1.140e-05 	
        18.478	  1.070e-05 	
        18.498	  1.140e-05 	
        18.518	  1.120e-05 	
        18.538	  1.070e-05 	
        18.558	  1.140e-05 	
        18.579	  1.270e-05 	
        18.598	  1.270e-05 	
        18.618	  1.240e-05 	
        18.638	  1.250e-05 	
        18.658	  1.200e-05 	
        18.678	  1.160e-05 	
        18.698	  1.090e-05 	
        18.718	  1.180e-05 	
        18.738	  1.050e-05 	
        18.758	  1.250e-05 	
        18.778	  1.090e-05 	
        18.798	  9.900e-06 	
        18.818	  1.160e-05 	
        18.838	  1.140e-05 	
        18.857	  1.060e-05 	
        18.878	  9.000e-06 	
        18.898	  1.000e-05 	
        18.919	  9.300e-06 	
        18.938	  1.050e-05 	
        18.958	  1.110e-05 	
        20.220	  1.110e-05 	
        20.238	  1.120e-05 	
        20.258	  1.200e-05 	
        20.277	  1.120e-05 	
        20.299	  9.600e-06 	
        20.319	  1.010e-05 	
        20.338	  9.400e-06 	
        20.358	  1.010e-05 	
        20.378	  1.050e-05 	
        20.399	  1.050e-05 	
        20.419	  1.180e-05 	
        20.438	  1.180e-05 	
        20.458	  1.070e-05 	
        20.478	  1.160e-05 	
        20.499	  1.030e-05 	
        20.519	  1.290e-05 	
        20.538	  1.310e-05 	
        20.558	  1.240e-05 	
        20.578	  1.160e-05 	
        20.598	  1.290e-05 	
        20.619	  1.220e-05 	
        20.638	  1.220e-05 	
        20.658	  1.060e-05 	
        20.678	  1.140e-05 	
        20.699	  1.080e-05 	
        20.721	  9.800e-06 	
        20.738	  8.500e-06 	
        20.758	  8.000e-06 	
        20.778	  1.070e-05 	
        20.797	  9.900e-06 	
        20.818	  9.800e-06 	
        20.839	  1.070e-05 	
        20.857	  1.030e-05 	
        20.878	  1.000e-05 	
        20.898	  1.000e-05 	
        20.919	  9.800e-06 	
        20.938	  8.900e-06 	
        20.958	  1.070e-05 	
        20.979	  8.700e-06 	
        20.999	  8.400e-06 	
        21.019	  1.140e-05 	
        21.038	  1.050e-05 	
        21.058	  9.100e-06 	
        21.078	  1.140e-05 	
        21.098	  9.300e-06 	
        21.119	  1.120e-05 	
        21.138	  9.600e-06 	
        21.158	  8.700e-06 	
        21.178	  1.120e-05 	
        21.199	  9.800e-06 	
        22.461	  9.600e-06 	
        22.478	  1.070e-05 	
        22.498	  1.010e-05 	
        22.518	  1.010e-05 	
        22.539	  1.000e-05 	
        22.558	  1.070e-05 	
        22.578	  1.190e-05 	
        22.597	  1.170e-05 	
        22.618	  9.800e-06 	
        22.638	  1.260e-05 	
        22.658	  1.250e-05 	
        22.679	  1.160e-05 	
        22.698	  1.200e-05 	
        22.719	  1.330e-05 	
        22.738	  1.040e-05 	
        22.758	  1.180e-05 	
        22.779	  1.120e-05 	
        22.798	  1.260e-05 	
        22.819	  1.160e-05 	
        22.839	  1.070e-05 	
        22.858	  1.210e-05 	
        22.877	  1.180e-05 	
        22.899	  1.140e-05 	
        22.919	  1.000e-05 	
        22.938	  9.400e-06 	
        22.958	  1.120e-05 	
        22.980	  1.140e-05 	
        22.999	  1.160e-05 	
        23.018	  1.140e-05 	
        23.038	  1.230e-05 	
        23.058	  1.120e-05 	
        23.078	  1.090e-05 	
        23.099	  1.230e-05 	
        23.119	  1.230e-05 	
        23.138	  1.130e-05 	
        23.158	  1.110e-05 	
        23.178	  1.250e-05 	
        23.199	  1.130e-05 	
        23.219	  1.200e-05 	
        23.239	  1.070e-05 	
        23.258	  1.110e-05 	
        23.279	  1.140e-05 	
        23.299	  1.310e-05 	
        23.319	  1.120e-05 	
        23.339	  1.180e-05 	
        23.357	  1.270e-05 	
        23.377	  1.160e-05 	
        23.398	  1.060e-05 	
        23.419	  1.100e-05 	
        23.439	  1.140e-05 	
        24.683	  1.250e-05 	
        24.699	  1.120e-05 	
        24.719	  9.600e-06 	
        24.739	  1.030e-05 	
        24.758	  1.190e-05 	
        24.779	  1.090e-05 	
        24.798	  1.190e-05 	
        24.819	  1.290e-05 	
        24.839	  1.300e-05 	
        24.857	  1.180e-05 	
        24.878	  1.250e-05 	
        24.899	  1.180e-05 	
        24.919	  1.030e-05 	
        24.938	  9.700e-06 	
        24.957	  9.200e-06 	
        24.979	  1.260e-05 	
        24.999	  1.320e-05 	
        25.019	  1.290e-05 	
        25.039	  1.270e-05 	
        25.058	  1.220e-05 	
        25.079	  1.220e-05 	
        25.097	  1.290e-05 	
        25.119	  1.220e-05 	
        25.139	  1.220e-05 	
        25.157	  1.230e-05 	
        25.179	  1.000e-05 	
        25.199	  1.050e-05 	
        25.219	  1.060e-05 	
        25.239	  1.180e-05 	
        25.260	  1.060e-05 	
        25.278	  1.270e-05 	
        25.299	  1.130e-05 	
        25.319	  1.110e-05 	
        25.339	  1.190e-05 	
        25.357	  1.190e-05 	
        25.379	  1.130e-05 	
        25.397	  1.110e-05 	
        25.417	  1.050e-05 	
        25.438	  1.140e-05 	
        25.457	  1.140e-05 	
        25.479	  1.030e-05 	
        25.499	  1.230e-05 	
        25.517	  1.290e-05 	
        25.539	  1.160e-05 	
        25.557	  1.140e-05 	
        25.578	  1.130e-05 	
        25.599	  1.050e-05 	
        25.619	  1.150e-05 	
        25.639	  1.200e-05 	
        25.658	  1.180e-05 	
        26.939	  1.010e-05 	
        26.958	  9.700e-06 	
        26.979	  1.180e-05 	
        26.999	  1.150e-05 	
        27.018	  1.250e-05 	
        27.039	  1.120e-05 	
        27.058	  1.130e-05 	
        27.078	  1.000e-05 	
        27.099	  1.140e-05 	
        27.119	  1.270e-05 	
        27.139	  1.160e-05 	
        27.158	  9.800e-06 	
        27.179	  1.030e-05 	
        27.199	  9.700e-06 	
        27.217	  1.210e-05 	
        27.239	  1.180e-05 	
        27.258	  1.280e-05 	
        27.279	  1.040e-05 	
        27.298	  1.180e-05 	
        27.318	  1.260e-05 	
        27.339	  1.150e-05 	
        27.358	  1.080e-05 	
        27.378	  1.070e-05 	
        27.399	  1.100e-05 	
        27.418	  1.060e-05 	
        27.439	  1.030e-05 	
        27.458	  1.060e-05 	
        27.479	  1.130e-05 	
        27.498	  1.130e-05 	
        27.521	  1.060e-05 	
        27.539	  1.110e-05 	
        27.557	  1.100e-05 	
        27.579	  1.030e-05 	
        27.598	  1.220e-05 	
        27.619	  1.220e-05 	
        27.639	  1.150e-05 	
        27.658	  1.120e-05 	
        27.678	  1.100e-05 	
        27.697	  1.090e-05 	
        27.719	  1.060e-05 	
        27.739	  1.290e-05 	
        27.758	  1.200e-05 	
        27.777	  1.190e-05 	
        27.798	  1.200e-05 	
        27.819	  1.250e-05 	
        27.839	  1.220e-05 	
        27.858	  1.070e-05 	
        27.878	  9.400e-06 	
        27.897	  1.230e-05 	
        27.919	  1.160e-05 	
        29.181	  1.150e-05 	
        29.198	  1.110e-05 	
        29.218	  1.260e-05 	
        29.238	  1.110e-05 	
        29.258	  1.140e-05 	
        29.279	  1.120e-05 	
        29.299	  1.330e-05 	
        29.319	  1.330e-05 	
        29.339	  1.380e-05 	
        29.358	  1.290e-05 	
        29.379	  1.340e-05 	
        29.398	  1.290e-05 	
        29.419	  1.270e-05 	
        29.438	  1.290e-05 	
        29.458	  1.130e-05 	
        29.479	  1.200e-05 	
        29.499	  1.180e-05 	
        29.518	  1.240e-05 	
        29.537	  1.000e-05 	
        29.557	  9.600e-06 	
        29.579	  1.030e-05 	
        29.598	  1.180e-05 	
        29.618	  1.050e-05 	
        29.639	  9.600e-06 	
        29.658	  1.060e-05 	
        29.679	  1.220e-05 	
        29.699	  1.070e-05 	
        29.718	  1.200e-05 	
        29.739	  1.040e-05 	
        29.758	  1.070e-05 	
        29.781	  1.090e-05 	
        29.797	  1.170e-05 	
        29.818	  1.150e-05 	
        29.839	  1.120e-05 	
        29.858	  1.250e-05 	
        29.879	  1.250e-05 	
        29.898	  1.130e-05 	
        29.918	  1.130e-05 	
        29.939	  1.040e-05 	
        29.957	  9.800e-06 	
        29.978	  1.020e-05 	
        29.999	  1.170e-05 	
        30.018	  1.090e-05 	
        30.039	  1.180e-05 	
        30.058	  1.000e-05 	
        30.078	  1.010e-05 	
        30.098	  9.600e-06 	
        30.118	  8.700e-06 	
        30.139	  9.300e-06 	
        30.158	  9.000e-06 	
        31.421	  9.000e-06 	
        31.439	  8.900e-06 	
        31.458	  1.080e-05 	
        31.479	  9.600e-06 	
        31.498	  1.170e-05 	
        31.519	  1.000e-05 	
        31.539	  9.700e-06 	
        31.558	  1.120e-05 	
        31.579	  1.060e-05 	
        31.598	  1.140e-05 	
        31.618	  1.250e-05 	
        31.639	  1.240e-05 	
        31.658	  1.160e-05 	
        31.678	  1.270e-05 	
        31.698	  1.160e-05 	
        31.719	  1.130e-05 	
        31.739	  1.130e-05 	
        31.758	  1.020e-05 	
        31.778	  1.120e-05 	
        31.798	  1.240e-05 	
        31.819	  1.190e-05 	
        31.837	  1.290e-05 	
        31.857	  1.140e-05 	
        31.878	  1.370e-05 	
        31.898	  1.180e-05 	
        31.919	  1.200e-05 	
        31.939	  1.200e-05 	
        31.957	  1.230e-05 	
        31.979	  1.110e-05 	
        31.998	  1.210e-05 	
        32.018	  1.150e-05 	
        32.037	  1.160e-05 	
        32.060	  1.190e-05 	
        32.078	  1.200e-05 	
        32.098	  1.360e-05 	
        32.118	  1.410e-05 	
        32.139	  1.310e-05 	
        32.158	  1.200e-05 	
        32.179	  1.270e-05 	
        32.198	  1.140e-05 	
        32.219	  9.700e-06 	
        32.238	  1.230e-05 	
        32.257	  1.140e-05 	
        32.277	  1.320e-05 	
        32.298	  1.330e-05 	
        32.317	  1.220e-05 	
        32.337	  1.210e-05 	
        32.358	  1.180e-05 	
        32.377	  1.170e-05 	
        32.398	  1.020e-05 	
        33.661	  1.210e-05 	
        33.677	  9.800e-06 	
        33.699	  1.050e-05 	
        33.719	  1.110e-05 	
        33.738	  1.040e-05 	
        33.758	  1.220e-05 	
        33.779	  9.100e-06 	
        33.798	  1.100e-05 	
        33.819	  9.800e-06 	
        33.837	  9.100e-06 	
        33.858	  8.300e-06 	
        33.877	  8.800e-06 	
        33.899	  1.220e-05 	
        33.917	  1.160e-05 	
        33.937	  1.160e-05 	
        33.958	  9.300e-06 	
        33.979	  8.900e-06 	
        33.999	  1.030e-05 	
        34.018	  9.800e-06 	
        34.037	  9.900e-06 	
        34.058	  1.090e-05 	
        34.078	  9.400e-06 	
        34.099	  1.160e-05 	
        34.118	  9.400e-06 	
        34.137	  9.100e-06 	
        34.158	  8.900e-06 	
        34.179	  1.230e-05 	
        34.198	  1.270e-05 	
        34.218	  1.300e-05 	
        34.238	  1.180e-05 	
        34.257	  1.270e-05 	
        34.278	  1.060e-05 	
        34.298	  9.100e-06 	
        34.321	  9.800e-06 	
        34.338	  1.020e-05 	
        34.358	  1.140e-05 	
        34.378	  1.220e-05 	
        34.397	  9.800e-06 	
        34.419	  1.070e-05 	
        34.438	  1.240e-05 	
        34.458	  1.230e-05 	
        34.478	  1.270e-05 	
        34.497	  1.030e-05 	
        34.519	  1.020e-05 	
        34.538	  1.070e-05 	
        34.558	  1.140e-05 	
        34.579	  1.150e-05 	
        34.598	  1.160e-05 	
        34.619	  1.060e-05 	
        34.638	  1.060e-05 	
        35.901	  1.170e-05 	
        35.918	  1.160e-05 	
        35.939	  9.600e-06 	
        35.958	  9.300e-06 	
        35.978	  1.090e-05 	
        35.999	  1.120e-05 	
        36.017	  1.160e-05 	
        36.038	  1.110e-05 	
        36.058	  1.220e-05 	
        36.077	  1.340e-05 	
        36.098	  1.130e-05 	
        36.117	  1.270e-05 	
        36.138	  1.100e-05 	
        36.158	  1.030e-05 	
        36.179	  9.400e-06 	
        36.198	  1.120e-05 	
        36.218	  1.310e-05 	
        36.239	  1.190e-05 	
        36.258	  1.120e-05 	
        36.278	  9.600e-06 	
        36.299	  1.030e-05 	
        36.318	  1.020e-05 	
        36.338	  9.100e-06 	
        36.358	  9.600e-06 	
        36.378	  9.900e-06 	
        36.399	  1.160e-05 	
        36.418	  1.160e-05 	
        36.439	  1.020e-05 	
        36.458	  9.300e-06 	
        36.479	  1.120e-05 	
        36.498	  1.030e-05 	
        36.519	  1.060e-05 	
        36.539	  1.210e-05 	
        36.558	  1.230e-05 	
        36.581	  1.200e-05 	
        36.599	  1.210e-05 	
        36.618	  1.240e-05 	
        36.639	  1.260e-05 	
        36.658	  1.090e-05 	
        36.679	  1.110e-05 	
        36.698	  1.060e-05 	
        36.719	  1.110e-05 	
        36.739	  1.110e-05 	
        36.758	  9.600e-06 	
        36.778	  1.030e-05 	
        36.799	  1.220e-05 	
        36.819	  1.100e-05 	
        36.839	  1.170e-05 	
        36.858	  1.180e-05 	
        36.878	  1.050e-05 	
        38.140	  1.130e-05 	
        38.158	  1.220e-05 	
        38.178	  1.180e-05 	
        38.199	  1.190e-05 	
        38.218	  1.280e-05 	
        38.239	  1.240e-05 	
        38.258	  1.210e-05 	
        38.277	  9.900e-06 	
        38.299	  1.210e-05 	
        38.318	  1.200e-05 	
        38.338	  1.210e-05 	
        38.358	  1.310e-05 	
        38.379	  1.200e-05 	
        38.398	  1.250e-05 	
        38.417	  1.320e-05 	
        38.439	  1.090e-05 	
        38.458	  9.500e-06 	
        38.477	  1.060e-05 	
        38.499	  1.050e-05 	
        38.518	  1.060e-05 	
        38.539	  1.110e-05 	
        38.558	  1.140e-05 	
        38.579	  1.180e-05 	
        38.599	  1.140e-05 	
        38.618	  1.140e-05 	
        38.639	  1.160e-05 	
        38.658	  1.130e-05 	
        38.678	  1.120e-05 	
        38.699	  1.120e-05 	
        38.717	  1.090e-05 	
        38.739	  1.140e-05 	
        38.758	  1.150e-05 	
        38.778	  1.140e-05 	
        38.799	  1.050e-05 	
        38.818	  1.130e-05 	
        38.838	  9.600e-06 	
        38.860	  1.070e-05 	
        38.878	  1.190e-05 	
        38.898	  1.160e-05 	
        38.918	  1.100e-05 	
        38.939	  9.900e-06 	
        38.957	  1.100e-05 	
        38.977	  9.600e-06 	
        38.998	  9.400e-06 	
        39.017	  1.070e-05 	
        39.038	  1.070e-05 	
        39.058	  1.120e-05 	
        39.078	  1.120e-05 	
        39.098	  1.180e-05 	
        39.117	  1.190e-05 	
        40.401	  1.250e-05 	
        40.418	  1.060e-05 	
        40.438	  1.340e-05 	
        40.457	  1.380e-05 	
        40.478	  1.290e-05 	
        40.499	  1.030e-05 	
        40.518	  1.210e-05 	
        40.539	  1.290e-05 	
        40.558	  1.120e-05 	
        40.577	  1.190e-05 	
        40.599	  9.900e-06 	
        40.618	  1.240e-05 	
        40.638	  1.280e-05 	
        40.658	  9.800e-06 	
        40.677	  1.130e-05 	
        40.699	  1.120e-05 	
        40.718	  1.130e-05 	
        40.739	  1.180e-05 	
        40.758	  1.200e-05 	
        40.779	  1.270e-05 	
        40.797	  1.320e-05 	
        40.818	  1.120e-05 	
        40.839	  9.900e-06 	
        40.858	  9.600e-06 	
        40.878	  1.200e-05 	
        40.899	  1.150e-05 	
        40.918	  9.500e-06 	
        40.938	  9.400e-06 	
        40.957	  1.090e-05 	
        40.979	  1.100e-05 	
        40.999	  1.270e-05 	
        41.018	  1.130e-05 	
        41.039	  1.250e-05 	
        41.057	  1.180e-05 	
        41.079	  1.180e-05 	
        41.099	  1.110e-05 	
        41.121	  1.140e-05 	
        41.139	  1.070e-05 	
        41.158	  1.220e-05 	
        41.178	  9.900e-06 	
        41.198	  9.800e-06 	
        41.218	  1.180e-05 	
        41.239	  1.200e-05 	
        41.258	  1.130e-05 	
        41.279	  1.090e-05 	
        41.298	  1.080e-05 	
        41.318	  1.270e-05 	
        41.339	  1.270e-05 	
        41.358	  1.090e-05 	
        41.378	  1.130e-05 	
        42.639	  9.500e-06 	
        42.657	  9.400e-06 	
        42.679	  1.250e-05 	
        42.699	  1.370e-05 	
        42.718	  1.340e-05 	
        42.739	  1.350e-05 	
        42.758	  1.320e-05 	
        42.779	  1.000e-05 	
        42.798	  1.170e-05 	
        42.818	  1.310e-05 	
        42.839	  1.240e-05 	
        42.857	  1.120e-05 	
        42.877	  1.190e-05 	
        42.899	  1.080e-05 	
        42.918	  1.140e-05 	
        42.938	  1.140e-05 	
        42.957	  1.140e-05 	
        42.977	  1.230e-05 	
        42.999	  1.010e-05 	
        43.018	  9.100e-06 	
        43.038	  1.090e-05 	
        43.058	  1.160e-05 	
        43.079	  1.140e-05 	
        43.098	  1.110e-05 	
        43.117	  1.270e-05 	
        43.137	  1.030e-05 	
        43.157	  9.100e-06 	
        43.179	  9.800e-06 	
        43.197	  1.050e-05 	
        43.218	  1.180e-05 	
        43.239	  1.140e-05 	
        43.258	  9.800e-06 	
        43.278	  1.090e-05 	
        43.299	  1.180e-05 	
        43.317	  1.080e-05 	
        43.338	  1.020e-05 	
        43.357	  1.270e-05 	
        43.380	  1.240e-05 	
        43.399	  1.170e-05 	
        43.417	  1.190e-05 	
        43.439	  1.210e-05 	
        43.458	  1.030e-05 	
        43.478	  9.700e-06 	
        43.499	  9.600e-06 	
        43.518	  1.130e-05 	
        43.539	  1.170e-05 	
        43.557	  1.020e-05 	
        43.578	  1.020e-05 	
        43.599	  1.100e-05 	
        43.618	  1.090e-05 	
        44.881	  1.080e-05 	
        44.899	  1.300e-05 	
        44.918	  1.360e-05 	
        44.938	  1.320e-05 	
        44.957	  1.270e-05 	
        44.979	  1.270e-05 	
        44.999	  1.070e-05 	
        45.018	  1.250e-05 	
        45.037	  1.230e-05 	
        45.057	  1.140e-05 	
        45.079	  1.190e-05 	
        45.098	  1.040e-05 	
        45.119	  1.050e-05 	
        45.139	  1.150e-05 	
        45.157	  1.010e-05 	
        45.177	  9.700e-06 	
        45.197	  1.070e-05 	
        45.219	  1.050e-05 	
        45.239	  1.010e-05 	
        45.257	  1.270e-05 	
        45.277	  1.210e-05 	
        45.298	  1.330e-05 	
        45.319	  1.150e-05 	
        45.339	  1.400e-05 	
        45.358	  1.020e-05 	
        45.379	  1.090e-05 	
        45.399	  1.310e-05 	
        45.419	  1.200e-05 	
        45.438	  1.160e-05 	
        45.457	  1.000e-05 	
        45.478	  1.240e-05 	
        45.499	  1.120e-05 	
        45.518	  1.120e-05 	
        45.539	  1.160e-05 	
        45.557	  1.140e-05 	
        45.579	  1.130e-05 	
        45.599	  1.090e-05 	
        45.619	  1.160e-05 	
        45.639	  1.090e-05 	
        45.660	  1.070e-05 	
        45.679	  9.900e-06 	
        45.699	  1.270e-05 	
        45.718	  1.160e-05 	
        45.738	  1.190e-05 	
        45.758	  1.310e-05 	
        45.779	  1.130e-05 	
        45.798	  1.220e-05 	
        45.818	  1.180e-05 	
        45.839	  1.090e-05 	
        45.858	  1.150e-05 	
        47.121	  1.190e-05 	
        47.138	  1.340e-05 	
        47.158	  1.160e-05 	
        47.179	  1.240e-05 	
        47.198	  9.600e-06 	
        47.218	  1.070e-05 	
        47.238	  1.180e-05 	
        47.258	  1.180e-05 	
        47.279	  1.210e-05 	
        47.297	  1.050e-05 	
        47.319	  9.400e-06 	
        47.338	  1.110e-05 	
        47.357	  1.240e-05 	
        47.377	  1.240e-05 	
        47.398	  1.230e-05 	
        47.419	  1.160e-05 	
        47.438	  1.320e-05 	
        47.455	  1.320e-05 	
        47.477	  1.270e-05 	
        47.498	  1.220e-05 	
        47.519	  1.270e-05 	
        47.538	  1.030e-05 	
        47.555	  1.130e-05 	
        47.579	  1.350e-05 	
        47.597	  1.150e-05 	
        47.619	  1.190e-05 	
        47.638	  1.110e-05 	
        47.658	  1.150e-05 	
        47.677	  1.150e-05 	
        47.697	  1.160e-05 	
        47.719	  9.200e-06 	
        47.739	  1.130e-05 	
        47.756	  1.110e-05 	
        47.779	  1.070e-05 	
        47.798	  1.200e-05 	
        47.819	  1.080e-05 	
        47.839	  1.170e-05 	
        47.858	  1.070e-05 	
        47.878	  1.190e-05 	
        47.898	  1.160e-05 	
        47.921	  1.140e-05 	
        47.938	  1.160e-05 	
        47.957	  9.800e-06 	
        47.978	  1.040e-05 	
        47.998	  9.600e-06 	
        48.018	  1.120e-05 	
        48.039	  1.210e-05 	
        48.058	  1.250e-05 	
        48.079	  1.240e-05 	
        48.098	  1.100e-05 	
        49.381	  1.200e-05 	
        49.398	  1.300e-05 	
        49.418	  1.060e-05 	
        49.438	  1.300e-05 	
        49.458	  1.230e-05 	
        49.478	  9.500e-06 	
        49.498	  9.100e-06 	
        49.519	  1.050e-05 	
        49.538	  9.100e-06 	
        49.557	  1.120e-05 	
        49.579	  1.230e-05 	
        49.598	  1.270e-05 	
        49.619	  1.280e-05 	
        49.638	  1.090e-05 	
        49.658	  9.300e-06 	
        49.679	  1.220e-05 	
        49.699	  9.800e-06 	
        49.716	  1.050e-05 	
        49.739	  1.050e-05 	
        49.758	  1.190e-05 	
        49.777	  1.300e-05 	
        49.799	  1.230e-05 	
        49.819	  9.600e-06 	
        49.839	  1.050e-05 	
        49.858	  1.090e-05 	
        49.877	  1.310e-05 	
        49.899	  1.190e-05 	
        49.917	  1.140e-05 	
        49.939	  1.160e-05 	
        49.958	  1.240e-05 	
        49.978	  1.160e-05 	
        49.998	  1.120e-05 	
        50.019	  1.110e-05 	
        50.039	  1.150e-05 	
        50.057	  1.240e-05 	
        50.077	  1.270e-05 	
        50.098	  1.050e-05 	
        50.118	  1.270e-05 	
        50.137	  1.070e-05 	
        50.158	  1.030e-05 	
        50.181	  1.120e-05 	
        50.198	  1.080e-05 	
        50.218	  1.160e-05 	
        50.239	  1.140e-05 	
        50.258	  1.270e-05 	
        50.279	  1.150e-05 	
        50.298	  1.090e-05 	
        50.319	  1.080e-05 	
        50.339	  1.210e-05 	
        50.358	  1.170e-05 	
        51.621	  1.230e-05 	
        51.638	  1.360e-05 	
        51.658	  1.140e-05 	
        51.679	  1.160e-05 	
        51.698	  1.120e-05 	
        51.716	  1.230e-05 	
        51.738	  1.300e-05 	
        51.758	  1.270e-05 	
        51.779	  1.140e-05 	
        51.797	  9.800e-06 	
        51.819	  1.010e-05 	
        51.838	  1.180e-05 	
        51.857	  9.600e-06 	
        51.879	  1.220e-05 	
        51.897	  1.110e-05 	
        51.918	  1.260e-05 	
        51.938	  1.340e-05 	
        51.958	  1.250e-05 	
        51.979	  1.200e-05 	
        51.998	  9.900e-06 	
        52.019	  1.160e-05 	
        52.038	  1.050e-05 	
        52.058	  1.020e-05 	
        52.077	  1.220e-05 	
        52.098	  1.150e-05 	
        52.119	  1.130e-05 	
        52.138	  1.070e-05 	
        52.158	  1.030e-05 	
        52.178	  1.150e-05 	
        52.198	  1.050e-05 	
        52.219	  1.160e-05 	
        52.238	  1.160e-05 	
        52.258	  1.270e-05 	
        52.278	  1.150e-05 	
        52.297	  1.110e-05 	
        52.319	  1.270e-05 	
        52.338	  1.220e-05 	
        52.358	  1.120e-05 	
        52.379	  1.090e-05 	
        52.398	  1.140e-05 	
        52.419	  1.170e-05 	
        52.439	  1.030e-05 	
        52.458	  1.060e-05 	
        52.479	  1.090e-05 	
        52.498	  1.040e-05 	
        52.519	  9.400e-06 	
        52.538	  1.270e-05 	
        52.558	  1.190e-05 	
        52.579	  1.120e-05 	
        52.598	  9.400e-06 	
        53.881	  1.080e-05 	
        53.897	  1.300e-05 	
        53.919	  1.260e-05 	
        53.939	  1.270e-05 	
        53.956	  1.320e-05 	
        53.977	  1.230e-05 	
        53.997	  1.020e-05 	
        54.019	  9.300e-06 	
        54.039	  1.110e-05 	
        54.056	  1.090e-05 	
        54.077	  1.070e-05 	
        54.097	  1.070e-05 	
        54.118	  9.400e-06 	
        54.138	  9.700e-06 	
        54.157	  1.030e-05 	
        54.179	  1.320e-05 	
        54.197	  1.430e-05 	
        54.218	  1.170e-05 	
        54.239	  1.210e-05 	
        54.257	  1.130e-05 	
        54.278	  9.900e-06 	
        54.297	  1.230e-05 	
        54.319	  1.090e-05 	
        54.338	  1.150e-05 	
        54.358	  1.240e-05 	
        54.379	  1.140e-05 	
        54.398	  1.270e-05 	
        54.419	  1.170e-05 	
        54.439	  1.160e-05 	
        54.458	  1.140e-05 	
        54.478	  1.050e-05 	
        54.498	  1.220e-05 	
        54.518	  1.180e-05 	
        54.538	  1.130e-05 	
        54.558	  1.330e-05 	
        54.579	  1.010e-05 	
        54.597	  1.160e-05 	
        54.618	  1.130e-05 	
        54.636	  1.120e-05 	
        54.657	  1.300e-05 	
        54.678	  1.030e-05 	
        54.699	  1.110e-05 	
        54.721	  9.600e-06 	
        54.737	  8.600e-06 	
        54.758	  1.110e-05 	
        54.779	  1.200e-05 	
        54.798	  1.130e-05 	
        54.819	  1.180e-05 	
        54.839	  1.110e-05 	
        54.858	  1.150e-05 	
        56.140	  1.160e-05 	
        56.158	  8.500e-06 	
        56.177	  1.090e-05 	
        56.198	  9.300e-06 	
        56.219	  1.120e-05 	
        56.238	  1.040e-05 	
        56.257	  1.210e-05 	
        56.278	  1.270e-05 	
        56.298	  1.070e-05 	
        56.318	  9.700e-06 	
        56.339	  9.700e-06 	
        56.357	  1.110e-05 	
        56.377	  9.300e-06 	
        56.398	  8.900e-06 	
        56.419	  1.070e-05 	
        56.439	  9.800e-06 	
        56.457	  1.200e-05 	
        56.479	  1.250e-05 	
        56.498	  1.220e-05 	
        56.518	  9.900e-06 	
        56.538	  1.360e-05 	
        56.558	  1.060e-05 	
        56.579	  9.800e-06 	
        56.597	  1.170e-05 	
        56.619	  1.170e-05 	
        56.638	  1.290e-05 	
        56.657	  1.030e-05 	
        56.679	  8.200e-06 	
        56.697	  1.110e-05 	
        56.718	  1.060e-05 	
        56.738	  1.300e-05 	
        56.758	  1.300e-05 	
        56.779	  1.230e-05 	
        56.798	  9.900e-06 	
        56.818	  1.070e-05 	
        56.839	  1.200e-05 	
        56.858	  1.200e-05 	
        56.879	  9.600e-06 	
        56.898	  9.000e-06 	
        56.917	  8.800e-06 	
        56.939	  1.090e-05 	
        56.958	  1.060e-05 	
        56.979	  1.090e-05 	
        56.998	  1.020e-05 	
        57.019	  9.900e-06 	
        57.039	  1.160e-05 	
        57.058	  1.200e-05 	
        57.077	  1.130e-05 	
        57.098	  9.600e-06 	
        57.117	  9.600e-06 	
        58.401	  8.800e-06 	
        58.418	  9.100e-06 	
        58.439	  8.300e-06 	
        58.458	  8.400e-06 	
        58.479	  1.030e-05 	
        58.498	  1.070e-05 	
        58.518	  1.110e-05 	
        58.539	  1.080e-05 	
        58.557	  9.000e-06 	
        58.578	  1.160e-05 	
        58.598	  1.000e-05 	
        58.618	  1.020e-05 	
        58.639	  9.100e-06 	
        58.658	  9.400e-06 	
        58.678	  8.700e-06 	
        58.699	  8.200e-06 	
        58.718	  9.300e-06 	
        58.738	  1.070e-05 	
        58.758	  9.600e-06 	
        58.778	  1.140e-05 	
        58.797	  1.110e-05 	
        58.818	  9.400e-06 	
        58.839	  9.800e-06 	
        58.858	  1.110e-05 	
        58.878	  1.220e-05 	
        58.899	  9.500e-06 	
        58.918	  9.600e-06 	
        58.939	  1.060e-05 	
        58.956	  9.300e-06 	
        58.979	  1.160e-05 	
        58.999	  9.700e-06 	
        59.018	  9.300e-06 	
        59.038	  1.020e-05 	
        59.058	  9.900e-06 	
        59.077	  9.400e-06 	
        59.099	  8.900e-06 	
        59.118	  8.700e-06 	
        59.139	  1.050e-05 	
        59.158	  1.140e-05 	
        59.177	  1.160e-05 	
        59.199	  8.900e-06 	
        59.218	  1.100e-05 	
        59.239	  1.090e-05 	
        59.256	  8.600e-06 	
        59.278	  9.100e-06 	
        59.299	  1.120e-05 	
        59.316	  9.200e-06 	
        59.339	  8.900e-06 	
        59.356	  8.500e-06 	
        59.377	  7.600e-06 	
        60.639	  1.120e-05 	
        60.655	  1.120e-05 	
        60.678	  1.100e-05 	
        60.699	  1.190e-05 	
        60.716	  1.140e-05 	
        60.738	  1.190e-05 	
        60.755	  1.090e-05 	
        60.779	  1.170e-05 	
        60.799	  1.220e-05 	
        60.816	  1.260e-05 	
        60.838	  1.170e-05 	
        60.856	  1.120e-05 	
        60.878	  1.270e-05 	
        60.899	  1.140e-05 	
        60.915	  1.290e-05 	
        60.939	  1.290e-05 	
        60.955	  1.370e-05 	
        60.977	  1.240e-05 	
        60.999	  1.170e-05 	
        61.017	  1.120e-05 	
        61.039	  1.150e-05 	
        61.056	  1.220e-05 	
        61.078	  1.140e-05 	
        61.099	  1.310e-05 	
        61.116	  1.310e-05 	
        61.139	  1.130e-05 	
        61.156	  1.120e-05 	
        61.179	  1.170e-05 	
        61.199	  1.030e-05 	
        61.216	  9.600e-06 	
        61.239	  1.150e-05 	
        61.256	  1.110e-05 	
        61.279	  1.030e-05 	
        61.297	  9.800e-06 	
        61.316	  1.000e-05 	
        61.339	  1.050e-05 	
        61.355	  1.150e-05 	
        61.377	  1.120e-05 	
        61.397	  1.030e-05 	
        61.416	  1.240e-05 	
        61.439	  1.220e-05 	
        61.456	  9.400e-06 	
        61.477	  1.150e-05 	
        61.495	  9.500e-06 	
        61.521	  1.120e-05 	
        61.539	  1.140e-05 	
        61.555	  1.290e-05 	
        61.579	  1.260e-05 	
        61.596	  1.110e-05 	
        61.616	  1.240e-05 	
        62.899	  1.020e-05 	
        62.916	  1.210e-05 	
        62.938	  1.340e-05 	
        62.955	  1.010e-05 	
        62.978	  1.070e-05 	
        62.996	  9.800e-06 	
        63.015	  1.250e-05 	
        63.039	  1.230e-05 	
        63.055	  1.410e-05 	
        63.078	  1.300e-05 	
        63.096	  1.250e-05 	
        63.116	  1.050e-05 	
        63.139	  1.210e-05 	
        63.156	  1.260e-05 	
        63.179	  1.130e-05 	
        63.196	  1.090e-05 	
        63.216	  1.160e-05 	
        63.237	  9.600e-06 	
        63.255	  1.180e-05 	
        63.279	  1.190e-05 	
        63.295	  1.100e-05 	
        63.317	  1.120e-05 	
        63.337	  1.260e-05 	
        63.356	  1.200e-05 	
        63.378	  1.270e-05 	
        63.397	  1.270e-05 	
        63.417	  1.160e-05 	
        63.438	  1.160e-05 	
        63.456	  1.150e-05 	
        63.479	  1.190e-05 	
        63.496	  1.250e-05 	
        63.517	  1.330e-05 	
        63.537	  1.230e-05 	
        63.556	  1.230e-05 	
        63.577	  1.310e-05 	
        63.597	  1.320e-05 	
        63.616	  1.370e-05 	
        63.639	  1.340e-05 	
        63.656	  1.160e-05 	
        63.678	  1.250e-05 	
        63.697	  1.070e-05 	
        63.716	  1.230e-05 	
        63.739	  9.400e-06 	
        63.755	  1.090e-05 	
        63.780	  1.150e-05 	
        63.797	  1.050e-05 	
        63.816	  1.060e-05 	
        63.839	  1.090e-05 	
        63.856	  1.190e-05 	
        63.877	  1.220e-05 	
        65.140	  1.370e-05 	
        65.156	  1.190e-05 	
        65.179	  1.140e-05 	
        65.195	  1.000e-05 	
        65.216	  1.100e-05 	
        65.239	  1.040e-05 	
        65.255	  1.400e-05 	
        65.279	  1.430e-05 	
        65.297	  1.350e-05 	
        65.316	  1.360e-05 	
        65.339	  1.310e-05 	
        65.356	  1.330e-05 	
        65.378	  1.090e-05 	
        65.397	  1.220e-05 	
        65.416	  1.120e-05 	
        65.439	  1.380e-05 	
        65.456	  1.280e-05 	
        65.478	  1.230e-05 	
        65.496	  1.160e-05 	
        65.516	  1.200e-05 	
        65.539	  1.400e-05 	
        65.556	  1.240e-05 	
        65.579	  1.140e-05 	
        65.596	  1.010e-05 	
        65.616	  1.230e-05 	
        65.639	  1.250e-05 	
        65.656	  1.270e-05 	
        65.678	  1.390e-05 	
        65.697	  1.360e-05 	
        65.715	  1.290e-05 	
        65.739	  1.190e-05 	
        65.756	  1.150e-05 	
        65.778	  1.140e-05 	
        65.796	  1.310e-05 	
        65.815	  1.300e-05 	
        65.839	  1.130e-05 	
        65.856	  1.210e-05 	
        65.877	  1.190e-05 	
        65.896	  1.200e-05 	
        65.916	  1.090e-05 	
        65.938	  1.200e-05 	
        65.956	  1.380e-05 	
        65.978	  1.260e-05 	
        65.996	  1.090e-05 	
        66.016	  1.390e-05 	
        66.039	  1.160e-05 	
        66.055	  1.270e-05 	
        66.079	  1.040e-05 	
        66.095	  1.310e-05 	
        66.115	  1.020e-05 	
        67.397	  1.080e-05 	
        67.416	  1.120e-05 	
        67.438	  1.280e-05 	
        67.455	  1.190e-05 	
        67.479	  1.270e-05 	
        67.497	  1.290e-05 	
        67.516	  1.010e-05 	
        67.538	  1.010e-05 	
        67.555	  8.900e-06 	
        67.578	  9.900e-06 	
        67.597	  1.130e-05 	
        67.616	  1.060e-05 	
        67.639	  9.500e-06 	
        67.656	  1.150e-05 	
        67.679	  1.000e-05 	
        67.697	  1.040e-05 	
        67.716	  1.030e-05 	
        67.737	  1.110e-05 	
        67.755	  1.140e-05 	
        67.778	  1.020e-05 	
        67.796	  9.800e-06 	
        67.816	  1.100e-05 	
        67.838	  1.080e-05 	
        67.856	  1.130e-05 	
        67.877	  1.070e-05 	
        67.897	  1.190e-05 	
        67.916	  1.140e-05 	
        67.938	  1.050e-05 	
        67.955	  1.020e-05 	
        67.978	  1.270e-05 	
        67.997	  1.210e-05 	
        68.016	  1.000e-05 	
        68.038	  1.180e-05 	
        68.055	  1.250e-05 	
        68.079	  1.070e-05 	
        68.096	  1.310e-05 	
        68.116	  1.120e-05 	
        68.139	  1.320e-05 	
        68.155	  1.090e-05 	
        68.178	  9.800e-06 	
        68.195	  1.160e-05 	
        68.215	  1.160e-05 	
        68.238	  1.040e-05 	
        68.255	  1.020e-05 	
        68.278	  1.140e-05 	
        68.296	  9.800e-06 	
        68.319	  1.200e-05 	
        68.338	  1.200e-05 	
        68.355	  1.010e-05 	
        68.378	  1.160e-05 	
        69.639	  1.250e-05 	
        69.655	  1.160e-05 	
        69.679	  1.140e-05 	
        69.697	  1.140e-05 	
        69.716	  1.230e-05 	
        69.738	  1.390e-05 	
        69.756	  1.130e-05 	
        69.778	  1.050e-05 	
        69.797	  9.600e-06 	
        69.816	  9.400e-06 	
        69.837	  8.800e-06 	
        69.856	  8.900e-06 	
        69.879	  9.300e-06 	
        69.897	  9.100e-06 	
        69.916	  1.140e-05 	
        69.938	  1.080e-05 	
        69.956	  9.400e-06 	
        69.978	  1.070e-05 	
        69.997	  9.300e-06 	
        70.017	  1.210e-05 	
        70.036	  1.180e-05 	
        70.055	  1.250e-05 	
        70.077	  1.220e-05 	
        70.097	  1.230e-05 	
        70.116	  1.150e-05 	
        70.137	  1.140e-05 	
        70.155	  1.030e-05 	
        70.178	  1.200e-05 	
        70.197	  1.120e-05 	
        70.216	  9.800e-06 	
        70.238	  1.200e-05 	
        70.255	  1.180e-05 	
        70.277	  1.110e-05 	
        70.295	  1.120e-05 	
        70.317	  9.900e-06 	
        70.338	  9.500e-06 	
        70.355	  8.900e-06 	
        70.377	  1.060e-05 	
        70.397	  1.160e-05 	
        70.416	  1.090e-05 	
        70.438	  1.190e-05 	
        70.455	  1.160e-05 	
        70.478	  1.200e-05 	
        70.496	  1.310e-05 	
        70.517	  1.160e-05 	
        70.537	  1.220e-05 	
        70.555	  1.060e-05 	
        70.579	  1.020e-05 	
        70.595	  1.160e-05 	
        70.616	  1.010e-05 	
        71.881	  1.210e-05 	
        71.897	  1.270e-05 	
        71.917	  1.330e-05 	
        71.937	  1.180e-05 	
        71.955	  1.270e-05 	
        71.979	  1.190e-05 	
        71.998	  1.080e-05 	
        72.017	  1.070e-05 	
        72.037	  1.310e-05 	
        72.055	  1.280e-05 	
        72.078	  1.310e-05 	
        72.097	  1.030e-05 	
        72.117	  1.100e-05 	
        72.139	  1.220e-05 	
        72.156	  1.360e-05 	
        72.178	  1.250e-05 	
        72.196	  1.010e-05 	
        72.217	  1.090e-05 	
        72.237	  1.040e-05 	
        72.256	  1.070e-05 	
        72.278	  9.500e-06 	
        72.297	  1.300e-05 	
        72.316	  1.190e-05 	
        72.339	  1.260e-05 	
        72.355	  1.080e-05 	
        72.378	  1.070e-05 	
        72.397	  1.030e-05 	
        72.416	  1.090e-05 	
        72.439	  9.700e-06 	
        72.456	  1.080e-05 	
        72.479	  9.300e-06 	
        72.499	  1.190e-05 	
        72.515	  1.170e-05 	
        72.538	  1.140e-05 	
        72.556	  1.320e-05 	
        72.577	  1.310e-05 	
        72.596	  1.410e-05 	
        72.615	  1.300e-05 	
        72.638	  1.140e-05 	
        72.655	  1.220e-05 	
        72.679	  1.330e-05 	
        72.696	  1.150e-05 	
        72.716	  1.230e-05 	
        72.739	  1.230e-05 	
        72.755	  1.230e-05 	
        72.779	  1.050e-05 	
        72.796	  1.000e-05 	
        72.816	  1.060e-05 	
        72.840	  1.250e-05 	
        72.855	  1.170e-05 	
        74.121	  9.600e-06 	
        74.137	  1.280e-05 	
        74.155	  1.360e-05 	
        74.175	  1.120e-05 	
        74.195	  1.040e-05 	
        74.215	  1.290e-05 	
        74.238	  1.020e-05 	
        74.255	  1.110e-05 	
        74.276	  9.600e-06 	
        74.296	  1.270e-05 	
        74.316	  1.230e-05 	
        74.338	  9.900e-06 	
        74.355	  1.110e-05 	
        74.376	  1.050e-05 	
        74.395	  1.140e-05 	
        74.417	  1.120e-05 	
        74.437	  1.110e-05 	
        74.455	  1.120e-05 	
        74.476	  1.060e-05 	
        74.498	  1.050e-05 	
        74.516	  9.300e-06 	
        74.538	  1.000e-05 	
        74.556	  1.160e-05 	
        74.576	  8.900e-06 	
        74.596	  8.400e-06 	
        74.617	  8.200e-06 	
        74.638	  1.020e-05 	
        74.655	  8.400e-06 	
        74.676	  8.100e-06 	
        74.696	  8.100e-06 	
        74.716	  7.800e-06 	
        74.738	  1.150e-05 	
        74.755	  1.110e-05 	
        74.777	  1.230e-05 	
        74.796	  9.100e-06 	
        74.817	  8.900e-06 	
        74.839	  1.070e-05 	
        74.856	  1.200e-05 	
        74.875	  1.170e-05 	
        74.896	  1.050e-05 	
        74.917	  1.090e-05 	
        74.939	  1.050e-05 	
        74.955	  1.250e-05 	
        74.975	  9.600e-06 	
        74.999	  1.090e-05 	
        75.017	  1.070e-05 	
        75.036	  1.150e-05 	
        75.056	  9.400e-06 	
        75.076	  1.120e-05 	
        75.095	  1.330e-05 	
        76.355	  1.280e-05 	
        76.376	  1.160e-05 	
        76.396	  1.180e-05 	
        76.417	  1.280e-05 	
        76.437	  1.100e-05 	
        76.455	  1.050e-05 	
        76.476	  1.130e-05 	
        76.496	  1.080e-05 	
        76.515	  9.400e-06 	
        76.538	  9.300e-06 	
        76.555	  9.100e-06 	
        76.575	  1.020e-05 	
        76.596	  1.030e-05 	
        76.615	  1.000e-05 	
        76.637	  8.900e-06 	
        76.655	  1.160e-05 	
        76.676	  9.400e-06 	
        76.696	  9.100e-06 	
        76.717	  1.220e-05 	
        76.738	  1.180e-05 	
        76.755	  1.210e-05 	
        76.775	  1.010e-05 	
        76.796	  1.160e-05 	
        76.817	  9.700e-06 	
        76.838	  9.200e-06 	
        76.856	  1.020e-05 	
        76.876	  1.150e-05 	
        76.897	  1.240e-05 	
        76.916	  1.200e-05 	
        76.938	  1.170e-05 	
        76.956	  1.240e-05 	
        76.975	  9.600e-06 	
        76.996	  1.090e-05 	
        77.017	  1.000e-05 	
        77.038	  1.070e-05 	
        77.056	  1.130e-05 	
        77.077	  8.800e-06 	
        77.096	  1.160e-05 	
        77.116	  9.400e-06 	
        77.139	  1.140e-05 	
        77.156	  1.230e-05 	
        77.175	  9.500e-06 	
        77.197	  8.600e-06 	
        77.217	  9.600e-06 	
        77.239	  1.070e-05 	
        77.255	  1.120e-05 	
        77.275	  1.200e-05 	
        77.296	  9.800e-06 	
        77.317	  1.100e-05 	
        77.339	  1.200e-05 	
        78.597	  1.190e-05 	
        78.617	  1.190e-05 	
        78.638	  9.600e-06 	
        78.655	  1.020e-05 	
        78.676	  9.200e-06 	
        78.696	  1.070e-05 	
        78.717	  1.240e-05 	
        78.739	  1.000e-05 	
        78.755	  9.000e-06 	
        78.775	  1.060e-05 	
        78.795	  1.000e-05 	
        78.817	  9.100e-06 	
        78.838	  8.500e-06 	
        78.855	  9.000e-06 	
        78.876	  9.400e-06 	
        78.897	  1.030e-05 	
        78.917	  1.110e-05 	
        78.938	  1.180e-05 	
        78.955	  9.200e-06 	
        78.976	  9.800e-06 	
        78.995	  1.180e-05 	
        79.017	  1.270e-05 	
        79.038	  1.000e-05 	
        79.056	  1.320e-05 	
        79.075	  1.340e-05 	
        79.096	  1.070e-05 	
        79.117	  1.140e-05 	
        79.138	  1.070e-05 	
        79.155	  1.220e-05 	
        79.175	  1.020e-05 	
        79.196	  9.400e-06 	
        79.217	  1.050e-05 	
        79.239	  1.110e-05 	
        79.256	  1.240e-05 	
        79.276	  1.220e-05 	
        79.297	  1.140e-05 	
        79.317	  1.140e-05 	
        79.338	  1.140e-05 	
        79.355	  1.170e-05 	
        79.375	  1.280e-05 	
        79.395	  1.170e-05 	
        79.417	  1.100e-05 	
        79.438	  1.030e-05 	
        79.455	  1.090e-05 	
        79.475	  1.050e-05 	
        79.497	  1.020e-05 	
        79.517	  1.070e-05 	
        79.539	  1.160e-05 	
        79.555	  1.160e-05 	
        79.575	  1.150e-05 	
        80.855	  9.700e-06 	
        80.875	  1.110e-05 	
        80.895	  1.360e-05 	
        80.916	  1.430e-05 	
        80.937	  1.170e-05 	
        80.955	  1.300e-05 	
        80.977	  1.020e-05 	
        80.995	  1.190e-05 	
        81.017	  1.310e-05 	
        81.036	  1.210e-05 	
        81.055	  9.400e-06 	
        81.075	  1.320e-05 	
        81.097	  1.270e-05 	
        81.115	  1.140e-05 	
        81.135	  1.310e-05 	
        81.155	  1.110e-05 	
        81.176	  9.100e-06 	
        81.196	  1.080e-05 	
        81.217	  1.160e-05 	
        81.236	  1.050e-05 	
        81.256	  1.050e-05 	
        81.276	  1.250e-05 	
        81.297	  1.030e-05 	
        81.315	  1.250e-05 	
        81.335	  1.000e-05 	
        81.355	  1.100e-05 	
        81.376	  9.800e-06 	
        81.397	  9.600e-06 	
        81.416	  1.190e-05 	
        81.436	  1.160e-05 	
        81.455	  1.180e-05 	
        81.476	  1.260e-05 	
        81.497	  1.230e-05 	
        81.516	  1.210e-05 	
        81.536	  1.160e-05 	
        81.555	  1.200e-05 	
        81.576	  1.270e-05 	
        81.597	  1.340e-05 	
        81.616	  1.320e-05 	
        81.635	  1.220e-05 	
        81.656	  1.170e-05 	
        81.677	  1.090e-05 	
        81.697	  1.250e-05 	
        81.716	  1.160e-05 	
        81.736	  1.200e-05 	
        81.756	  1.220e-05 	
        81.775	  1.170e-05 	
        81.796	  1.340e-05 	
        81.817	  1.200e-05 	
        81.835	  1.280e-05 	
        83.097	  1.230e-05 	
        83.116	  9.600e-06 	
        83.136	  1.090e-05 	
        83.155	  9.500e-06 	
        83.177	  8.700e-06 	
        83.196	  1.290e-05 	
        83.216	  1.070e-05 	
        83.237	  1.020e-05 	
        83.256	  1.000e-05 	
        83.276	  1.050e-05 	
        83.296	  1.110e-05 	
        83.316	  1.100e-05 	
        83.337	  1.260e-05 	
        83.355	  1.180e-05 	
        83.376	  1.140e-05 	
        83.396	  9.400e-06 	
        83.417	  1.010e-05 	
        83.436	  1.140e-05 	
        83.455	  1.260e-05 	
        83.475	  1.180e-05 	
        83.496	  1.140e-05 	
        83.517	  1.200e-05 	
        83.537	  1.170e-05 	
        83.555	  9.600e-06 	
        83.576	  1.030e-05 	
        83.596	  1.120e-05 	
        83.616	  9.000e-06 	
        83.636	  1.250e-05 	
        83.655	  1.130e-05 	
        83.675	  1.050e-05 	
        83.697	  1.230e-05 	
        83.716	  1.200e-05 	
        83.736	  1.200e-05 	
        83.755	  1.090e-05 	
        83.776	  1.250e-05 	
        83.796	  1.230e-05 	
        83.816	  1.130e-05 	
        83.836	  1.100e-05 	
        83.855	  1.110e-05 	
        83.876	  1.170e-05 	
        83.896	  1.030e-05 	
        83.916	  1.110e-05 	
        83.936	  1.020e-05 	
        83.955	  8.500e-06 	
        83.975	  1.040e-05 	
        83.996	  1.080e-05 	
        84.016	  1.150e-05 	
        84.036	  9.400e-06 	
        84.055	  9.800e-06 	
        84.076	  1.120e-05 	
        85.376	  1.130e-05 	
        85.396	  1.320e-05 	
        85.415	  1.070e-05 	
        85.435	  1.110e-05 	
        85.455	  1.110e-05 	
        85.475	  1.220e-05 	
        85.496	  1.330e-05 	
        85.516	  1.300e-05 	
        85.536	  1.260e-05 	
        85.555	  1.140e-05 	
        85.576	  9.700e-06 	
        85.596	  1.070e-05 	
        85.616	  1.180e-05 	
        85.636	  1.060e-05 	
        85.655	  1.040e-05 	
        85.675	  1.050e-05 	
        85.696	  1.050e-05 	
        85.715	  1.070e-05 	
        85.735	  9.600e-06 	
        85.755	  9.200e-06 	
        85.776	  1.120e-05 	
        85.795	  1.230e-05 	
        85.817	  1.240e-05 	
        85.836	  1.030e-05 	
        85.855	  1.100e-05 	
        85.876	  1.070e-05 	
        85.896	  1.000e-05 	
        85.917	  1.060e-05 	
        85.935	  1.140e-05 	
        85.955	  1.180e-05 	
        85.976	  1.160e-05 	
        85.996	  1.070e-05 	
        86.016	  1.190e-05 	
        86.036	  1.140e-05 	
        86.055	  1.030e-05 	
        86.075	  1.140e-05 	
        86.096	  1.180e-05 	
        86.117	  1.300e-05 	
        86.137	  1.160e-05 	
        86.155	  1.050e-05 	
        86.176	  1.140e-05 	
        86.196	  1.180e-05 	
        86.216	  1.030e-05 	
        86.236	  1.140e-05 	
        86.256	  1.200e-05 	
        86.275	  1.050e-05 	
        86.296	  1.090e-05 	
        86.317	  1.350e-05 	
        86.336	  1.300e-05 	
        86.355	  1.230e-05 	
        87.616	  1.160e-05 	
        87.635	  1.160e-05 	
        87.656	  1.190e-05 	
        87.676	  1.020e-05 	
        87.695	  1.230e-05 	
        87.717	  1.120e-05 	
        87.735	  1.300e-05 	
        87.755	  1.260e-05 	
        87.776	  1.070e-05 	
        87.795	  1.020e-05 	
        87.817	  9.700e-06 	
        87.836	  1.210e-05 	
        87.855	  1.160e-05 	
        87.876	  1.050e-05 	
        87.896	  1.000e-05 	
        87.917	  8.900e-06 	
        87.935	  9.400e-06 	
        87.955	  1.020e-05 	
        87.976	  1.120e-05 	
        87.995	  1.160e-05 	
        88.016	  1.140e-05 	
        88.036	  1.150e-05 	
        88.055	  9.600e-06 	
        88.076	  1.070e-05 	
        88.096	  1.230e-05 	
        88.116	  1.140e-05 	
        88.135	  9.800e-06 	
        88.155	  1.020e-05 	
        88.176	  1.200e-05 	
        88.196	  1.320e-05 	
        88.216	  1.270e-05 	
        88.236	  1.110e-05 	
        88.255	  1.100e-05 	
        88.277	  1.250e-05 	
        88.295	  1.220e-05 	
        88.316	  1.180e-05 	
        88.336	  1.040e-05 	
        88.355	  1.140e-05 	
        88.376	  1.190e-05 	
        88.395	  1.040e-05 	
        88.416	  9.100e-06 	
        88.436	  1.230e-05 	
        88.455	  1.190e-05 	
        88.475	  1.140e-05 	
        88.496	  1.090e-05 	
        88.516	  1.180e-05 	
        88.538	  1.210e-05 	
        88.555	  9.900e-06 	
        88.575	  1.110e-05 	
        88.596	  1.120e-05 	
        89.855	  1.320e-05 	
        89.877	  1.060e-05 	
        89.896	  1.060e-05 	
        89.917	  1.160e-05 	
        89.938	  1.310e-05 	
        89.955	  1.290e-05 	
        89.977	  1.050e-05 	
        89.996	  1.100e-05 	
        90.015	  1.180e-05 	
        90.035	  1.120e-05 	
        90.055	  1.170e-05 	
        90.075	  9.900e-06 	
        90.095	  1.270e-05 	
        90.116	  1.080e-05 	
        90.137	  1.230e-05 	
        90.155	  1.140e-05 	
        90.177	  9.900e-06 	
        90.197	  1.090e-05 	
        90.217	  1.190e-05 	
        90.236	  1.030e-05 	
        90.256	  1.070e-05 	
        90.275	  1.160e-05 	
        90.296	  9.400e-06 	
        90.317	  1.300e-05 	
        90.337	  9.700e-06 	
        90.355	  1.150e-05 	
        90.376	  9.400e-06 	
        90.396	  9.900e-06 	
        90.417	  1.220e-05 	
        90.435	  1.140e-05 	
        90.455	  1.160e-05 	
        90.476	  9.400e-06 	
        90.495	  8.400e-06 	
        90.517	  8.900e-06 	
        90.536	  1.090e-05 	
        90.555	  9.300e-06 	
        90.577	  9.200e-06 	
        90.596	  1.200e-05 	
        90.617	  1.110e-05 	
        90.636	  1.110e-05 	
        90.655	  1.140e-05 	
        90.676	  1.090e-05 	
        90.696	  9.500e-06 	
        90.717	  1.030e-05 	
        90.737	  1.070e-05 	
        90.755	  1.170e-05 	
        90.775	  9.900e-06 	
        90.795	  1.050e-05 	
        90.817	  1.070e-05 	
        90.837	  1.310e-05 	
